
Integration time [ms]:   0.200
Averaging Nr. [scans]: 65000
Smoothing Nr. [pixels]: 0
Data measured with spectrometer [name]: 7213323SP
Wave   ;Sample   ;Dark     ;Reference;Absolute Irradiance  ;Photon Counts
[nm]   ;[counts] ;[counts] ;[counts] ;[µWatt/cm²/nm]       ;[µMol/s/m²/nm]

 175.65;  190.634;  189.595;    0.000; 0.00000; 0.00000
 176.25;  209.635;  208.219;    0.000; 0.00000; 0.00000
 176.85;  206.645;  205.519;    0.000; 0.00000; 0.00000
 177.45;  207.192;  205.651;    0.000; 0.00000; 0.00000
 178.05;  200.247;  199.022;    0.000; 0.00000; 0.00000
 178.65;  198.282;  197.236;    0.000; 0.00000; 0.00000
 179.25;  190.999;  189.935;    0.000; 0.00000; 0.00000
 179.85;  201.531;  200.485;    0.000; 0.00000; 0.00000
 180.45;  190.652;  189.611;    0.000; 0.00000; 0.00000
 181.05;  232.928;  231.744;    0.000; 0.00000; 0.00000
 181.65;  196.376;  195.302;    0.000; 0.00000; 0.00000
 182.25;  215.277;  214.248;    0.000; 0.00000; 0.00000
 182.86;  213.650;  212.413;    0.000; 0.00000; 0.00000
 183.46;  208.847;  207.677;    0.000; 0.00000; 0.00000
 184.06;  191.597;  190.606;    0.000; 0.00000; 0.00000
 184.66;  180.278;  179.019;    0.000; 0.00000; 0.00000
 185.26;  222.708;  221.525;    0.000; 0.00000; 0.00000
 185.86;  202.465;  201.445;    0.000; 0.00000; 0.00000
 186.46;  222.636;  221.339;    0.000; 0.00000; 0.00000
 187.06;  204.527;  203.311;    0.000; 0.00000; 0.00000
 187.66;  227.195;  225.879;    0.000; 0.00000; 0.00000
 188.26;  231.906;  230.528;    0.000; 0.00000; 0.00000
 188.86;  211.637;  210.363;    0.000; 0.00000; 0.00000
 189.46;  207.056;  205.746;    0.000; 0.00000; 0.00000
 190.06;  199.503;  198.176;    0.000; 0.00000; 0.00000
 190.66;  203.294;  201.820;    0.000; 0.00000; 0.00000
 191.26;  222.219;  220.851;    0.000; 0.00000; 0.00000
 191.86;  217.225;  215.784;    0.000; 0.00000; 0.00000
 192.46;  216.187;  214.592;    0.000; 0.00000; 0.00000
 193.06;  218.174;  216.703;    0.000; 0.00000; 0.00000
 193.66;  205.406;  203.465;    0.000; 0.00000; 0.00000
 194.26;  225.282;  223.221;    0.000; 0.00000; 0.00000
 194.86;  188.058;  185.605;    0.000; 0.00000; 0.00000
 195.46;  194.919;  191.576;    0.000; 0.00000; 0.00000
 196.06;  209.926;  205.589;    0.000; 0.00000; 0.00000
 196.66;  187.306;  181.667;    0.000; 0.00000; 0.00000
 197.26;  190.266;  182.666;    0.000; 0.00000; 0.00000
 197.86;  221.167;  211.351;    0.000; 0.00000; 0.00000
 198.46;  193.192;  180.998;    0.000; 0.00000; 0.00000
 199.06;  222.596;  207.867;    0.000; 0.00000; 0.00000
 199.66;  215.016;  197.771;    0.000; 0.00000; 0.00000
 200.26;  208.823;  188.479;    0.000;117.28854; 1.96306
 200.85;  227.735;  203.616;    0.000;133.76190; 2.24548
 201.45;  223.364;  195.742;    0.000;145.41898; 2.44845
 202.05;  228.392;  197.405;    0.000;154.96667; 2.61697
 202.65;  226.835;  192.390;    0.000;164.13135; 2.77996
 203.25;  219.225;  182.497;    0.000;166.11438; 2.82187
 203.85;  234.972;  197.162;    0.000;163.73757; 2.78970
 204.45;  266.440;  228.691;    0.000;156.80274; 2.67940
 205.05;  206.181;  170.381;    0.000;141.53620; 2.42562
 205.65;  213.597;  180.308;    0.000;123.34292; 2.12001
 206.25;  235.801;  205.654;    0.000;107.14279; 1.84693
 206.85;  209.801;  184.508;    0.000;85.36518; 1.47580
 207.45;  211.953;  191.597;    0.000;65.41164; 1.13412
 208.05;  196.113;  180.300;    0.000;48.79018; 0.84838
 208.65;  194.840;  183.712;    0.000;33.25095; 0.57984
 209.25;  182.709;  174.842;    0.000;22.64161; 0.39597
 209.84;  210.522;  205.159;    0.000;15.21672; 0.26688
 210.44;  190.845;  186.872;    0.000;10.98939; 0.19329
 211.04;  221.844;  218.402;    0.000; 9.23546; 0.16290
 211.64;  190.376;  187.411;    0.000; 7.59612; 0.13437
 212.24;  202.105;  199.395;    0.000; 6.68427; 0.11857
 212.84;  194.988;  192.152;    0.000; 6.78200; 0.12064
 213.44;  182.473;  179.885;    0.000; 5.90210; 0.10529
 214.04;  179.817;  177.341;    0.000; 5.41616; 0.09689
 214.64;  197.765;  195.249;    0.000; 5.25651; 0.09430
 215.24;  178.760;  176.387;    0.000; 4.80815; 0.08649
 215.83;  199.187;  196.582;    0.000; 5.06381; 0.09135
 216.43;  167.577;  164.974;    0.000; 4.89915; 0.08862
 217.03;  174.881;  172.497;    0.000; 4.37043; 0.07928
 217.63;  180.597;  178.153;    0.000; 4.30417; 0.07829
 218.23;  188.405;  185.873;    0.000; 4.38079; 0.07990
 218.83;  179.469;  176.979;    0.000; 4.17939; 0.07644
 219.43;  178.241;  175.751;    0.000; 4.06705; 0.07459
 220.03;  170.746;  168.349;    0.000; 3.78982; 0.06969
 220.62;  175.236;  172.885;    0.000; 3.61649; 0.06669
 221.22;  184.831;  182.470;    0.000; 3.51380; 0.06497
 221.82;  191.376;  189.085;    0.000; 3.34438; 0.06200
 222.42;  165.889;  163.721;    0.000; 3.07946; 0.05725
 223.02;  181.144;  178.828;    0.000; 3.24113; 0.06041
 223.62;  172.811;  170.701;    0.000; 2.91083; 0.05440
 224.22;  191.844;  189.906;    0.000; 2.65725; 0.04980
 224.81;  184.858;  182.891;    0.000; 2.68798; 0.05051
 225.41;  184.469;  182.765;    0.000; 2.30629; 0.04345
 226.01;  170.186;  168.300;    0.000; 2.52791; 0.04775
 226.61;  174.789;  173.103;    0.000; 2.21627; 0.04198
 227.21;  174.560;  172.885;    0.000; 2.13218; 0.04049
 227.81;  200.428;  198.705;    0.000; 2.14155; 0.04077
 228.40;  168.949;  167.319;    0.000; 1.95478; 0.03732
 229.00;  173.942;  172.261;    0.000; 1.95466; 0.03741
 229.60;  177.886;  176.355;    0.000; 1.71596; 0.03293
 230.20;  200.321;  198.764;    0.000; 1.67641; 0.03225
 230.80;  163.897;  162.183;    0.000; 1.79038; 0.03454
 231.39;  158.269;  156.560;    0.000; 1.73419; 0.03354
 231.99;  177.988;  176.348;    0.000; 1.60706; 0.03116
 232.59;  201.809;  200.150;    0.000; 1.59088; 0.03093
 233.19;  174.228;  172.393;    0.000; 1.70567; 0.03324
 233.79;  186.168;  184.603;    0.000; 1.42075; 0.02776
 234.38;  172.247;  170.413;    0.000; 1.64646; 0.03225
 234.98;  178.320;  176.564;    0.000; 1.53566; 0.03016
 235.58;  182.500;  180.595;    0.000; 1.64165; 0.03232
 236.18;  194.000;  192.277;    0.000; 1.46064; 0.02883
 236.78;  179.070;  177.261;    0.000; 1.50994; 0.02988
 237.37;  193.150;  191.543;    0.000; 1.32570; 0.02630
 237.97;  197.796;  195.974;    0.000; 1.47627; 0.02936
 238.57;  198.114;  196.396;    0.000; 1.37732; 0.02746
 239.17;  167.520;  165.625;    0.000; 1.50354; 0.03005
 239.76;  188.380;  186.418;    0.000; 1.55113; 0.03108
 240.36;  179.354;  177.543;    0.000; 1.43878; 0.02890
 240.96;  205.628;  203.676;    0.000; 1.54558; 0.03113
 241.56;  172.493;  170.849;    0.000; 1.31336; 0.02652
 242.15;  179.421;  177.486;    0.000; 1.54760; 0.03132
 242.75;  201.115;  199.199;    0.000; 1.54347; 0.03132
 243.35;  177.501;  175.767;    0.000; 1.42035; 0.02889
 243.95;  186.544;  184.487;    0.000; 1.67581; 0.03417
 244.54;  199.729;  197.869;    0.000; 1.52165; 0.03110
 245.14;  195.796;  194.162;    0.000; 1.32702; 0.02719
 245.74;  213.015;  211.096;    0.000; 1.54235; 0.03168
 246.34;  184.807;  182.873;    0.000; 1.53627; 0.03163
 246.93;  198.394;  196.614;    0.000; 1.38278; 0.02854
 247.53;  154.948;  153.044;    0.000; 1.44746; 0.02995
 248.13;  195.575;  193.701;    0.000; 1.38420; 0.02871
 248.73;  183.650;  181.780;    0.000; 1.35598; 0.02819
 249.32;  186.774;  184.592;    0.000; 1.54177; 0.03213
 249.92;  175.987;  173.857;    0.000; 1.47481; 0.03081
 250.52;  188.898;  186.976;    0.000; 1.30123; 0.02725
 251.11;  192.446;  190.262;    0.000; 1.45086; 0.03045
 251.71;  208.527;  206.403;    0.000; 1.39775; 0.02941
 252.31;  163.636;  161.509;    0.000; 1.38614; 0.02923
 252.91;  189.332;  187.284;    0.000; 1.31603; 0.02782
 253.50;  158.973;  156.878;    0.000; 1.33789; 0.02835
 254.10;  198.111;  195.989;    0.000; 1.34115; 0.02848
 254.70;  169.782;  167.522;    0.000; 1.41377; 0.03010
 255.29;  204.768;  202.590;    0.000; 1.36580; 0.02914
 255.89;  187.760;  185.551;    0.000; 1.37632; 0.02944
 256.49;  171.733;  169.529;    0.000; 1.36938; 0.02936
 257.08;  176.395;  173.679;    0.000; 1.67651; 0.03602
 257.68;  191.675;  189.316;    0.000; 1.45927; 0.03143
 258.28;  187.952;  185.300;    0.000; 1.62349; 0.03505
 258.87;  193.206;  191.684;    0.000; 0.93730; 0.02028
 259.47;  178.810;  176.554;    0.000; 1.38289; 0.02999
 260.07;  185.424;  183.084;    0.000; 1.44638; 0.03144
 260.66;  162.469;  160.193;    0.000; 1.43075; 0.03117
 261.26;  209.342;  207.109;    0.000; 1.41151; 0.03082
 261.86;  202.562;  200.333;    0.000; 1.42928; 0.03128
 262.45;  176.978;  174.782;    0.000; 1.43924; 0.03157
 263.05;  177.398;  175.076;    0.000; 1.53577; 0.03376
 263.65;  178.420;  176.186;    0.000; 1.49297; 0.03290
 264.24;  196.009;  193.965;    0.000; 1.40924; 0.03112
 264.84;  206.715;  204.460;    0.000; 1.58096; 0.03499
 265.44;  182.272;  180.191;    0.000; 1.47704; 0.03277
 266.03;  178.425;  176.144;    0.000; 1.63013; 0.03625
 266.63;  169.403;  167.252;    0.000; 1.54697; 0.03447
 267.23;  185.012;  182.925;    0.000; 1.49355; 0.03336
 267.82;  162.373;  160.218;    0.000; 1.55249; 0.03475
 268.42;  171.162;  168.931;    0.000; 1.58398; 0.03553
 269.01;  172.887;  170.757;    0.000; 1.49237; 0.03355
 269.61;  184.952;  182.605;    0.000; 1.62342; 0.03658
 270.21;  186.054;  183.779;    0.000; 1.53506; 0.03467
 270.80;  202.718;  200.404;    0.000; 1.52842; 0.03459
 271.40;  164.756;  162.444;    0.000; 1.49869; 0.03399
 271.99;  198.646;  196.115;    0.000; 1.60500; 0.03649
 272.59;  157.437;  155.527;    0.000; 1.19691; 0.02727
 273.19;  167.580;  165.050;    0.000; 1.53879; 0.03513
 273.78;  154.898;  152.411;    0.000; 1.48345; 0.03394
 274.38;  170.491;  167.996;    0.000; 1.44877; 0.03322
 274.97;  179.543;  177.104;    0.000; 1.39024; 0.03195
 275.57;  180.235;  177.682;    0.000; 1.42785; 0.03289
 276.17;  153.412;  150.724;    0.000; 1.47995; 0.03416
 276.76;  178.287;  175.740;    0.000; 1.37861; 0.03189
 277.36;  176.366;  173.387;    0.000; 1.59328; 0.03693
 277.95;  180.758;  177.954;    0.000; 1.46242; 0.03397
 278.55;  165.652;  162.702;    0.000; 1.52301; 0.03546
 279.14;  185.122;  182.163;    0.000; 1.51534; 0.03535
 279.74;  181.573;  178.913;    0.000; 1.34247; 0.03139
 280.34;  167.248;  164.316;    0.000; 1.45856; 0.03417
 280.93;  202.325;  199.323;    0.000; 1.47517; 0.03464
 281.53;  159.960;  156.847;    0.000; 1.51218; 0.03558
 282.12;  184.558;  181.212;    0.000; 1.60356; 0.03781
 282.72;  172.805;  169.809;    0.000; 1.42123; 0.03358
 283.31;  182.212;  179.108;    0.000; 1.45930; 0.03455
 283.91;  162.758;  159.661;    0.000; 1.44819; 0.03436
 284.50;  191.331;  188.071;    0.000; 1.51753; 0.03608
 285.10;  199.408;  196.213;    0.000; 1.48038; 0.03527
 285.69;  162.315;  159.198;    0.000; 1.45527; 0.03475
 286.29;  184.351;  181.033;    0.000; 1.54646; 0.03700
 286.89;  175.824;  172.595;    0.000; 1.51237; 0.03626
 287.48;  181.061;  178.010;    0.000; 1.45297; 0.03491
 288.08;  195.051;  192.018;    0.000; 1.42278; 0.03426
 288.67;  175.811;  172.735;    0.000; 1.45550; 0.03512
 289.27;  179.461;  176.442;    0.000; 1.43870; 0.03478
 289.86;  175.975;  172.924;    0.000; 1.45932; 0.03535
 290.46;  158.655;  155.577;    0.000; 1.46992; 0.03568
 291.05;  174.291;  171.032;    0.000; 1.54621; 0.03761
 291.65;  170.972;  167.991;    0.000; 1.40842; 0.03433
 292.24;  193.870;  190.705;    0.000; 1.48051; 0.03616
 292.84;  180.595;  177.568;    0.000; 1.40010; 0.03427
 293.43;  181.896;  178.988;    0.000; 1.34322; 0.03294
 294.03;  180.502;  177.683;    0.000; 1.26607; 0.03111
 294.62;  186.926;  183.503;    0.000; 1.52147; 0.03746
 295.22;  170.141;  166.859;    0.000; 1.43187; 0.03533
 295.81;  185.272;  182.095;    0.000; 1.36239; 0.03368
 296.41;  172.426;  169.253;    0.000; 1.33798; 0.03315
 297.00;  187.412;  184.132;    0.000; 1.35592; 0.03366
 297.60;  175.372;  172.201;    0.000; 1.29382; 0.03218
 298.19;  182.527;  179.318;    0.000; 1.28156; 0.03194
 298.78;  178.889;  175.669;    0.000; 1.26842; 0.03167
 299.38;  165.341;  162.043;    0.000; 1.27938; 0.03201
 299.97;  191.002;  187.585;    0.000; 1.31162; 0.03288
 300.57;  178.330;  175.090;    0.000; 1.22517; 0.03078
 301.16;  139.544;  136.226;    0.000; 1.23906; 0.03119
 301.76;  175.450;  172.184;    0.000; 1.19449; 0.03013
 302.35;  178.560;  174.837;    0.000; 1.34292; 0.03394
 302.95;  195.549;  191.859;    0.000; 1.27983; 0.03240
 303.54;  154.702;  150.996;    0.000; 1.25634; 0.03187
 304.14;  158.945;  155.282;    0.000; 1.20584; 0.03065
 304.73;  192.850;  188.924;    0.000; 1.26341; 0.03218
 305.32;  182.386;  178.417;    0.000; 1.25141; 0.03193
 305.92;  164.622;  160.491;    0.000; 1.28717; 0.03291
 306.51;  159.283;  155.298;    0.000; 1.21951; 0.03124
 307.11;  177.618;  173.401;    0.000; 1.26859; 0.03256
 307.70;  155.644;  151.196;    0.000; 1.31585; 0.03384
 308.29;  159.856;  155.589;    0.000; 1.24341; 0.03204
 308.89;  165.920;  161.640;    0.000; 1.23726; 0.03194
 309.48;  127.218;  122.581;    0.000; 1.32637; 0.03431
 310.08;  168.205;  163.711;    0.000; 1.26390; 0.03275
 310.67;  170.589;  165.983;    0.000; 1.29382; 0.03359
 311.27;  155.517;  150.790;    0.000; 1.31799; 0.03429
 311.86;  160.489;  155.736;    0.000; 1.30996; 0.03414
 312.45;  165.533;  160.831;    0.000; 1.28629; 0.03359
 313.05;  177.962;  173.193;    0.000; 1.29359; 0.03385
 313.64;  170.973;  166.234;    0.000; 1.28834; 0.03377
 314.23;  159.531;  154.749;    0.000; 1.27905; 0.03359
 314.83;  180.713;  176.025;    0.000; 1.24854; 0.03285
 315.42;  152.489;  148.203;    0.000; 1.14645; 0.03022
 316.02;  158.368;  153.546;    0.000; 1.29563; 0.03422
 316.61;  153.420;  148.743;    0.000; 1.24552; 0.03296
 317.20;  166.472;  161.511;    0.000; 1.31714; 0.03492
 317.80;  160.878;  156.055;    0.000; 1.28881; 0.03423
 318.39;  165.925;  161.285;    0.000; 1.24691; 0.03318
 318.98;  196.805;  192.055;    0.000; 1.28611; 0.03429
 319.58;  170.540;  165.773;    0.000; 1.29083; 0.03448
 320.17;  167.897;  163.367;    0.000; 1.24600; 0.03334
 320.76;  168.499;  163.850;    0.000; 1.28881; 0.03455
 321.36;  173.374;  168.764;    0.000; 1.27371; 0.03421
 321.95;  168.562;  164.149;    0.000; 1.24060; 0.03338
 322.55;  186.609;  182.144;    0.000; 1.25769; 0.03390
 323.14;  155.482;  151.119;    0.000; 1.24238; 0.03355
 323.73;  154.101;  149.601;    0.000; 1.29933; 0.03516
 324.33;  176.286;  171.960;    0.000; 1.27063; 0.03444
 324.92;  169.981;  166.072;    0.000; 1.16723; 0.03170
 325.51;  167.055;  162.394;    0.000; 1.40530; 0.03823
 326.10;  164.597;  160.501;    0.000; 1.24511; 0.03394
 326.70;  173.640;  169.419;    0.000; 1.29883; 0.03546
 327.29;  166.911;  162.680;    0.000; 1.31684; 0.03602
 327.88;  163.483;  159.539;    0.000; 1.22891; 0.03368
 328.48;  172.509;  168.453;    0.000; 1.26778; 0.03481
 329.07;  180.052;  175.880;    0.000; 1.30322; 0.03584
 329.66;  173.052;  168.988;    0.000; 1.29778; 0.03576
 330.26;  176.322;  172.020;    0.000; 1.36246; 0.03761
 330.85;  180.855;  176.710;    0.000; 1.30849; 0.03618
 331.44;  174.926;  170.713;    0.000; 1.33495; 0.03698
 332.04;  175.241;  171.114;    0.000; 1.29243; 0.03587
 332.63;  165.370;  160.955;    0.000; 1.38474; 0.03850
 333.22;  178.230;  173.864;    0.000; 1.35300; 0.03768
 333.81;  181.730;  177.094;    0.000; 1.41556; 0.03949
 334.41;  183.953;  179.510;    0.000; 1.34225; 0.03751
 335.00;  192.792;  188.219;    0.000; 1.35934; 0.03806
 335.59;  175.969;  171.304;    0.000; 1.37285; 0.03851
 336.18;  186.299;  181.518;    0.000; 1.39516; 0.03920
 336.78;  166.185;  161.339;    0.000; 1.38733; 0.03905
 337.37;  170.280;  165.579;    0.000; 1.30986; 0.03693
 337.96;  228.120;  223.220;    0.000; 1.34399; 0.03796
 338.55;  198.027;  192.949;    0.000; 1.36987; 0.03876
 339.15;  185.361;  180.318;    0.000; 1.34332; 0.03808
 339.74;  173.665;  168.403;    0.000; 1.39236; 0.03954
 340.33;  171.540;  166.356;    0.000; 1.37836; 0.03921
 340.92;  179.902;  174.826;    0.000; 1.36902; 0.03901
 341.52;  177.340;  172.194;    0.000; 1.36762; 0.03904
 342.11;  172.512;  167.198;    0.000; 1.39369; 0.03985
 342.70;  162.162;  156.711;    0.000; 1.42492; 0.04081
 343.29;  178.469;  172.881;    0.000; 1.46069; 0.04191
 343.89;  168.942;  163.454;    0.000; 1.43475; 0.04124
 344.48;  180.980;  175.228;    0.000; 1.47711; 0.04253
 345.07;  155.224;  149.551;    0.000; 1.45534; 0.04197
 345.66;  183.915;  178.086;    0.000; 1.50748; 0.04355
 346.25;  169.403;  163.524;    0.000; 1.50537; 0.04356
 346.85;  185.132;  179.129;    0.000; 1.53280; 0.04443
 347.44;  161.972;  155.946;    0.000; 1.53992; 0.04472
 348.03;  172.027;  165.929;    0.000; 1.55207; 0.04515
 348.62;  193.199;  187.314;    0.000; 1.50654; 0.04390
 349.21;  163.464;  157.581;    0.000; 1.51898; 0.04433
 349.81;  178.685;  172.663;    0.000; 1.55390; 0.04543
 350.40;  164.102;  158.257;    0.000; 1.51308; 0.04431
 350.99;  160.390;  154.318;    0.000; 1.59429; 0.04677
 351.58;  169.465;  163.735;    0.000; 1.51798; 0.04461
 352.17;  146.631;  140.543;    0.000; 1.61662; 0.04758
 352.77;  173.198;  167.188;    0.000; 1.61712; 0.04768
 353.36;  179.834;  173.832;    0.000; 1.61972; 0.04784
 353.95;  180.339;  174.282;    0.000; 1.66538; 0.04927
 354.54;  159.330;  153.493;    0.000; 1.62628; 0.04819
 355.13;  177.063;  171.204;    0.000; 1.65572; 0.04914
 355.72;  178.462;  172.491;    0.000; 1.71832; 0.05109
 356.32;  168.919;  163.089;    0.000; 1.72151; 0.05127
 356.91;  189.703;  183.762;    0.000; 1.78092; 0.05312
 357.50;  170.348;  164.525;    0.000; 1.76731; 0.05281
 358.09;  165.393;  159.564;    0.000; 1.83546; 0.05493
 358.68;  166.766;  161.224;    0.000; 1.77364; 0.05317
 359.27;  182.914;  177.359;    0.000; 1.84069; 0.05527
 359.86;  186.036;  180.384;    0.000; 1.93791; 0.05829
 360.46;  158.633;  153.055;    0.000; 1.99114; 0.05999
 361.05;  173.216;  167.835;    0.000; 1.94853; 0.05880
 361.64;  168.469;  163.129;    0.000; 2.01678; 0.06096
 362.23;  173.377;  168.033;    0.000; 2.08533; 0.06313
 362.82;  165.194;  160.086;    0.000; 2.03263; 0.06164
 363.41;  169.614;  164.277;    0.000; 2.21230; 0.06720
 364.00;  178.618;  173.345;    0.000; 2.27296; 0.06915
 364.59;  183.489;  178.409;    0.000; 2.24552; 0.06843
 365.19;  161.772;  156.715;    0.000; 2.33060; 0.07113
 365.78;  183.445;  178.476;    0.000; 2.35026; 0.07185
 366.37;  169.766;  164.824;    0.000; 2.39867; 0.07345
 366.96;  168.662;  163.519;    0.000; 2.54322; 0.07800
 367.55;  181.355;  176.568;    0.000; 2.36055; 0.07251
 368.14;  179.148;  174.223;    0.000; 2.43499; 0.07492
 368.73;  186.478;  181.638;    0.000; 2.40186; 0.07402
 369.32;  191.108;  186.327;    0.000; 2.41537; 0.07456
 369.91;  181.427;  176.587;    0.000; 2.43648; 0.07533
 370.50;  188.303;  183.564;    0.000; 2.37756; 0.07362
 371.09;  174.953;  170.003;    0.000; 2.48477; 0.07707
 371.69;  172.418;  167.500;    0.000; 2.46408; 0.07655
 372.28;  166.463;  161.641;    0.000; 2.41252; 0.07506
 372.87;  197.733;  192.704;    0.000; 2.50018; 0.07791
 373.46;  166.908;  161.833;    0.000; 2.49588; 0.07790
 374.05;  187.715;  182.620;    0.000; 2.51470; 0.07862
 374.64;  187.121;  182.165;    0.000; 2.41518; 0.07562
 375.23;  178.855;  173.416;    0.000; 2.62934; 0.08246
 375.82;  198.644;  193.542;    0.000; 2.43152; 0.07637
 376.41;  193.096;  187.796;    0.000; 2.52149; 0.07933
 377.00;  192.371;  186.967;    0.000; 2.54195; 0.08009
 377.59;  182.188;  176.681;    0.000; 2.49551; 0.07875
 378.18;  186.766;  181.491;    0.000; 2.37912; 0.07520
 378.77;  182.290;  176.634;    0.000; 2.52749; 0.08001
 379.36;  173.859;  168.242;    0.000; 2.48099; 0.07866
 379.95;  193.625;  187.878;    0.000; 2.51727; 0.07994
 380.54;  185.996;  180.152;    0.000; 2.49322; 0.07930
 381.13;  200.655;  194.634;    0.000; 2.53688; 0.08081
 381.72;  168.289;  162.276;    0.000; 2.47680; 0.07902
 382.31;  198.136;  191.947;    0.000; 2.52281; 0.08061
 382.90;  185.492;  179.342;    0.000; 2.46921; 0.07902
 383.49;  231.661;  225.169;    0.000; 2.58233; 0.08277
 384.08;  173.733;  167.437;    0.000; 2.45553; 0.07883
 384.67;  197.586;  190.951;    0.000; 2.55631; 0.08219
 385.26;  194.689;  187.752;    0.000; 2.60654; 0.08393
 385.85;  178.115;  171.244;    0.000; 2.55093; 0.08226
 386.44;  191.808;  185.002;    0.000; 2.52250; 0.08147
 387.03;  202.388;  195.388;    0.000; 2.54572; 0.08235
 387.62;  166.195;  159.070;    0.000; 2.54400; 0.08242
 388.21;  199.248;  192.157;    0.000; 2.51127; 0.08148
 388.80;  181.396;  173.992;    0.000; 2.58336; 0.08395
 389.39;  185.890;  178.259;    0.000; 2.62827; 0.08554
 389.98;  184.374;  176.718;    0.000; 2.59166; 0.08447
 390.57;  184.978;  177.016;    0.000; 2.67788; 0.08741
 391.16;  191.002;  182.849;    0.000; 2.70322; 0.08838
 391.75;  199.287;  191.229;    0.000; 2.65419; 0.08690
 392.34;  198.350;  189.736;    0.000; 2.79081; 0.09151
 392.93;  195.152;  186.696;    0.000; 2.70532; 0.08884
 393.52;  171.310;  162.690;    0.000; 2.74003; 0.09012
 394.11;  175.469;  166.752;    0.000; 2.74927; 0.09056
 394.70;  215.026;  206.160;    0.000; 2.77203; 0.09144
 395.29;  196.690;  187.355;    0.000; 2.88557; 0.09533
 395.88;  183.515;  174.111;    0.000; 2.93145; 0.09699
 396.47;  198.978;  189.219;    0.000; 2.98720; 0.09898
 397.05;  186.319;  176.682;    0.000; 2.96174; 0.09829
 397.64;  199.761;  189.735;    0.000; 3.05985; 0.10169
 398.23;  188.010;  177.927;    0.000; 3.07090; 0.10221
 398.82;  188.931;  179.014;    0.000; 2.98786; 0.09959
 399.41;  181.783;  171.798;    0.000; 3.01437; 0.10063
 400.00;  178.584;  168.958;    0.000; 2.91434; 0.09743
 400.59;  198.647;  188.961;    0.000; 2.92401; 0.09790
 401.18;  195.940;  186.264;    0.000; 2.93343; 0.09836
 401.77;  184.973;  174.820;    0.000; 3.06794; 0.10302
 402.36;  199.656;  190.230;    0.000; 2.84283; 0.09560
 402.95;  180.453;  171.273;    0.000; 2.78501; 0.09379
 403.53;  198.061;  188.752;    0.000; 2.81647; 0.09499
 404.12;  181.392;  172.165;    0.000; 2.77316; 0.09367
 404.71;  181.863;  172.677;    0.000; 2.77806; 0.09397
 405.30;  162.090;  153.018;    0.000; 2.76628; 0.09371
 405.89;  178.464;  169.415;    0.000; 2.73564; 0.09280
 406.48;  198.295;  189.136;    0.000; 2.77833; 0.09439
 407.07;  172.343;  163.118;    0.000; 2.81845; 0.09589
 407.66;  194.462;  185.559;    0.000; 2.74793; 0.09363
 408.24;  193.891;  184.752;    0.000; 2.80492; 0.09571
 408.83;  196.236;  186.911;    0.000; 2.87559; 0.09826
 409.42;  171.926;  163.057;    0.000; 2.74295; 0.09386
 410.01;  187.521;  178.558;    0.000; 2.77792; 0.09519
 410.60;  196.991;  188.036;    0.000; 2.83422; 0.09726
 411.19;  167.617;  158.665;    0.000; 2.82082; 0.09694
 411.78;  167.222;  158.328;    0.000; 2.84448; 0.09789
 412.36;  173.860;  164.660;    0.000; 2.92665; 0.10087
 412.95;  178.783;  169.878;    0.000; 2.86392; 0.09884
 413.54;  205.220;  196.332;    0.000; 2.85680; 0.09874
 414.13;  195.219;  186.478;    0.000; 2.83721; 0.09820
 414.72;  178.860;  170.254;    0.000; 2.79454; 0.09686
 415.31;  177.868;  169.083;    0.000; 2.87940; 0.09995
 415.89;  163.408;  155.102;    0.000; 2.73299; 0.09500
 416.48;  180.061;  171.854;    0.000; 2.72818; 0.09496
 417.07;  169.740;  161.592;    0.000; 2.72184; 0.09488
 417.66;  199.225;  190.990;    0.000; 2.76521; 0.09653
 418.25;  184.874;  177.022;    0.000; 2.67431; 0.09348
 418.83;  179.833;  171.847;    0.000; 2.71746; 0.09513
 419.42;  186.446;  178.457;    0.000; 2.73106; 0.09574
 420.01;  188.193;  180.325;    0.000; 2.70663; 0.09501
 420.60;  188.078;  180.209;    0.000; 2.73332; 0.09608
 421.19;  208.790;  201.090;    0.000; 2.69872; 0.09500
 421.77;  162.251;  154.867;    0.000; 2.62115; 0.09240
 422.36;  193.197;  186.210;    0.000; 2.47135; 0.08724
 422.95;  183.452;  176.185;    0.000; 2.60740; 0.09217
 423.54;  203.168;  195.914;    0.000; 2.60946; 0.09237
 424.12;  191.823;  184.909;    0.000; 2.49882; 0.08858
 424.71;  190.065;  183.086;    0.000; 2.54555; 0.09036
 425.30;  194.632;  187.673;    0.000; 2.54608; 0.09050
 425.89;  197.497;  190.483;    0.000; 2.56917; 0.09145
 426.48;  189.501;  182.717;    0.000; 2.49726; 0.08901
 427.06;  182.327;  175.619;    0.000; 2.48878; 0.08883
 427.65;  198.157;  191.402;    0.000; 2.49275; 0.08910
 428.24;  175.913;  169.393;    0.000; 2.42514; 0.08680
 428.83;  187.398;  180.839;    0.000; 2.42263; 0.08683
 429.41;  195.805;  189.262;    0.000; 2.43812; 0.08750
 430.00;  181.939;  175.489;    0.000; 2.40539; 0.08645
 430.59;  216.452;  209.670;    0.000; 2.50486; 0.09014
 431.17;  199.954;  193.526;    0.000; 2.39568; 0.08633
 431.76;  199.846;  193.448;    0.000; 2.38412; 0.08603
 432.35;  210.404;  203.769;    0.000; 2.47046; 0.08927
 432.94;  199.664;  193.275;    0.000; 2.37160; 0.08581
 433.52;  202.856;  196.514;    0.000; 2.33680; 0.08467
 434.11;  208.188;  201.798;    0.000; 2.34920; 0.08523
 434.70;  198.110;  191.893;    0.000; 2.28914; 0.08317
 435.29;  214.843;  208.667;    0.000; 2.27302; 0.08269
 435.87;  207.380;  201.053;    0.000; 2.31275; 0.08425
 436.46;  212.674;  206.310;    0.000; 2.31960; 0.08462
 437.05;  184.917;  178.525;    0.000; 2.32720; 0.08501
 437.63;  203.697;  197.285;    0.000; 2.32352; 0.08499
 438.22;  203.751;  197.370;    0.000; 2.29561; 0.08408
 438.81;  214.634;  208.007;    0.000; 2.38231; 0.08737
 439.39;  194.059;  187.392;    0.000; 2.38994; 0.08777
 439.98;  207.692;  201.074;    0.000; 2.33593; 0.08590
 440.57;  203.777;  197.188;    0.000; 2.33453; 0.08596
 441.15;  197.162;  190.883;    0.000; 2.19187; 0.08082
 441.74;  203.690;  197.084;    0.000; 2.31201; 0.08536
 442.33;  210.693;  204.188;    0.000; 2.25357; 0.08331
 442.91;  204.844;  198.206;    0.000; 2.28833; 0.08471
 443.50;  194.527;  187.905;    0.000; 2.26084; 0.08380
 444.09;  189.178;  182.277;    0.000; 2.32739; 0.08638
 444.67;  223.016;  216.397;    0.000; 2.19096; 0.08143
 445.26;  203.743;  197.068;    0.000; 2.21560; 0.08245
 445.85;  219.471;  212.723;    0.000; 2.22615; 0.08295
 446.43;  202.260;  195.573;    0.000; 2.18618; 0.08157
 447.02;  202.872;  196.099;    0.000; 2.20563; 0.08240
 447.61;  181.012;  174.287;    0.000; 2.15511; 0.08062
 448.19;  207.802;  200.843;    0.000; 2.20807; 0.08271
 448.78;  198.400;  191.564;    0.000; 2.14302; 0.08038
 449.36;  205.164;  197.943;    0.000; 2.25375; 0.08464
 449.95;  193.917;  185.660;    0.000; 2.55218; 0.09598
 450.54;  194.743;  185.930;    0.000; 2.69146; 0.10135
 451.12;  215.981;  207.789;    0.000; 2.48463; 0.09368
 451.71;  180.004;  172.483;    0.000; 2.25953; 0.08530
 452.30;  208.380;  200.422;    0.000; 2.35628; 0.08907
 452.88;  197.744;  189.377;    0.000; 2.47596; 0.09372
 453.47;  181.989;  174.037;    0.000; 2.32370; 0.08807
 454.05;  190.272;  182.639;    0.000; 2.21525; 0.08407
 454.64;  198.479;  190.955;    0.000; 2.17239; 0.08255
 455.22;  215.524;  207.873;    0.000; 2.17386; 0.08271
 455.81;  182.003;  174.078;    0.000; 2.25584; 0.08594
 456.40;  216.053;  208.208;    0.000; 2.20539; 0.08412
 456.98;  189.701;  181.675;    0.000; 2.24521; 0.08575
 457.57;  210.018;  201.628;    0.000; 2.32134; 0.08877
 458.15;  214.317;  205.681;    0.000; 2.38199; 0.09121
 458.74;  200.082;  191.369;    0.000; 2.40602; 0.09225
 459.33;  208.857;  200.237;    0.000; 2.35832; 0.09053
 459.91;  208.591;  200.281;    0.000; 2.26207; 0.08695
 460.50;  206.940;  199.041;    0.000; 2.14301; 0.08248
 461.08;  199.044;  190.525;    0.000; 2.29670; 0.08851
 461.67;  202.604;  193.759;    0.000; 2.37080; 0.09148
 462.25;  205.572;  196.175;    0.000; 2.52754; 0.09765
 462.84;  177.767;  167.634;    0.000; 2.69758; 0.10435
 463.42;  192.496;  182.133;    0.000; 2.76437; 0.10707
 464.01;  194.915;  185.049;    0.000; 2.61646; 0.10147
 464.59;  207.454;  198.267;    0.000; 2.43248; 0.09445
 465.18;  194.427;  185.391;    0.000; 2.39390; 0.09307
 465.76;  198.618;  189.495;    0.000; 2.41352; 0.09395
 466.35;  200.380;  191.124;    0.000; 2.43265; 0.09482
 466.94;  213.057;  202.788;    0.000; 2.68913; 0.10495
 467.52;  220.941;  208.298;    0.000; 3.30306; 0.12907
 468.11;  192.177;  178.644;    0.000; 3.55282; 0.13900
 468.69;  182.631;  170.065;    0.000; 3.27515; 0.12830
 469.28;  173.492;  161.980;    0.000; 2.99004; 0.11727
 469.86;  208.304;  197.649;    0.000; 2.77142; 0.10883
 470.45;  200.335;  190.005;    0.000; 2.68674; 0.10564
 471.03;  181.926;  172.758;    0.000; 2.38249; 0.09379
 471.62;  191.157;  181.955;    0.000; 2.38199; 0.09389
 472.20;  194.529;  185.629;    0.000; 2.30838; 0.09110
 472.79;  228.736;  219.440;    0.000; 2.40413; 0.09500
 473.37;  197.798;  186.941;    0.000; 2.82831; 0.11190
 473.95;  195.757;  184.625;    0.000; 2.90063; 0.11490
 474.54;  157.303;  147.639;    0.000; 2.52305; 0.10007
 475.12;  218.684;  209.922;    0.000; 2.28697; 0.09082
 475.71;  200.586;  192.350;    0.000; 2.16501; 0.08608
 476.29;  204.047;  195.624;    0.000; 2.22304; 0.08849
 476.88;  179.982;  171.925;    0.000; 2.12149; 0.08456
 477.46;  179.638;  171.622;    0.000; 2.11573; 0.08443
 478.05;  186.644;  178.826;    0.000; 2.07802; 0.08303
 478.63;  192.781;  185.174;    0.000; 2.01307; 0.08053
 479.22;  171.443;  163.348;    0.000; 2.15018; 0.08612
 479.80;  197.591;  189.629;    0.000; 2.12529; 0.08523
 480.38;  192.540;  184.186;    0.000; 2.23968; 0.08992
 480.97;  178.597;  169.266;    0.000; 2.49989; 0.10049
 481.55;  188.091;  178.409;    0.000; 2.60906; 0.10501
 482.14;  208.350;  199.299;    0.000; 2.43791; 0.09824
 482.72;  184.819;  175.893;    0.000; 2.41620; 0.09748
 483.31;  182.877;  173.811;    0.000; 2.46416; 0.09954
 483.89;  188.570;  179.477;    0.000; 2.48664; 0.10057
 484.47;  185.079;  176.579;    0.000; 2.32461; 0.09413
 485.06;  175.732;  167.404;    0.000; 2.29604; 0.09308
 485.64;  201.279;  193.126;    0.000; 2.26089; 0.09177
 486.23;  205.021;  196.990;    0.000; 2.24210; 0.09111
 486.81;  196.720;  188.645;    0.000; 2.25386; 0.09170
 487.39;  168.005;  160.382;    0.000; 2.13749; 0.08707
 487.98;  178.248;  170.872;    0.000; 2.08543; 0.08505
 488.56;  207.553;  200.167;    0.000; 2.09239; 0.08544
 489.15;  176.885;  169.457;    0.000; 2.12807; 0.08700
 489.73;  182.314;  175.228;    0.000; 2.03728; 0.08339
 490.31;  180.671;  173.678;    0.000; 2.01326; 0.08250
 490.90;  181.636;  174.441;    0.000; 2.09639; 0.08601
 491.48;  183.320;  175.840;    0.000; 2.19719; 0.09025
 492.06;  200.305;  191.998;    0.000; 2.43299; 0.10006
 492.65;  167.155;  159.120;    0.000; 2.37971; 0.09798
 493.23;  157.915;  150.227;    0.000; 2.29928; 0.09478
 493.82;  188.468;  181.097;    0.000; 2.20042; 0.09082
 494.40;  157.949;  151.138;    0.000; 2.05755; 0.08502
 494.98;  172.851;  166.305;    0.000; 1.98802; 0.08224
 495.57;  156.338;  149.892;    0.000; 1.97295; 0.08172
 496.15;  155.657;  149.309;    0.000; 1.96005; 0.08128
 496.73;  168.322;  162.274;    0.000; 1.87753; 0.07795
 497.32;  189.812;  183.686;    0.000; 1.89873; 0.07892
 497.90;  188.784;  182.815;    0.000; 1.86287; 0.07752
 498.48;  163.398;  157.627;    0.000; 1.82330; 0.07596
 499.07;  170.820;  165.096;    0.000; 1.80995; 0.07549
 499.65;  186.993;  181.128;    0.000; 1.86814; 0.07801
 500.23;  152.498;  146.773;    0.000; 1.83200; 0.07659
 500.82;  165.658;  160.235;    0.000; 1.74956; 0.07323
 501.40;  169.004;  163.432;    0.000; 1.80261; 0.07554
 501.98;  179.030;  173.204;    0.000; 1.88454; 0.07907
 502.56;  193.174;  187.493;    0.000; 1.85569; 0.07795
 503.15;  194.582;  188.727;    0.000; 1.91444; 0.08051
 503.73;  176.313;  170.840;    0.000; 1.79979; 0.07577
 504.31;  181.591;  176.268;    0.000; 1.75592; 0.07401
 504.90;  189.104;  183.292;    0.000; 1.92979; 0.08143
 505.48;  201.123;  195.429;    0.000; 1.89337; 0.07999
 506.06;  184.802;  179.255;    0.000; 1.85750; 0.07856
 506.64;  171.406;  165.836;    0.000; 1.86826; 0.07911
 507.23;  178.860;  173.127;    0.000; 1.92906; 0.08178
 507.81;  189.746;  184.159;    0.000; 1.87999; 0.07979
 508.39;  179.124;  173.586;    0.000; 1.86740; 0.07935
 508.97;  184.540;  178.925;    0.000; 1.89519; 0.08062
 509.56;  195.898;  190.072;    0.000; 1.97610; 0.08416
 510.14;  161.589;  155.734;    0.000; 1.97783; 0.08433
 510.72;  180.844;  175.021;    0.000; 1.97813; 0.08444
 511.30;  191.345;  185.641;    0.000; 1.93234; 0.08258
 511.89;  188.970;  182.968;    0.000; 2.04008; 0.08728
 512.47;  181.274;  175.428;    0.000; 1.97708; 0.08468
 513.05;  180.217;  174.178;    0.000; 2.06220; 0.08843
 513.63;  181.233;  175.215;    0.000; 2.05461; 0.08820
 514.22;  193.000;  186.519;    0.000; 2.19428; 0.09430
 514.80;  190.398;  184.113;    0.000; 2.12764; 0.09154
 515.38;  181.403;  175.125;    0.000; 2.12627; 0.09159
 515.96;  202.632;  196.164;    0.000; 2.19399; 0.09461
 516.55;  175.240;  168.646;    0.000; 2.24281; 0.09683
 517.13;  187.071;  180.382;    0.000; 2.29122; 0.09903
 517.71;  172.885;  166.299;    0.000; 2.26431; 0.09798
 518.29;  173.189;  166.391;    0.000; 2.33904; 0.10132
 518.87;  185.154;  178.105;    0.000; 2.43751; 0.10571
 519.46;  176.259;  169.097;    0.000; 2.48305; 0.10780
 520.04;  179.975;  172.880;    0.000; 2.43912; 0.10601
 520.62;  170.414;  163.465;    0.000; 2.40719; 0.10474
 521.20;  168.918;  161.735;    0.000; 2.49522; 0.10869
 521.78;  184.678;  177.205;    0.000; 2.58182; 0.11259
 522.36;  179.750;  171.980;    0.000; 2.68829; 0.11737
 522.95;  180.924;  173.339;    0.000; 2.62533; 0.11475
 523.53;  169.032;  161.302;    0.000; 2.67767; 0.11716
 524.11;  181.664;  173.978;    0.000; 2.63855; 0.11558
 524.69;  177.510;  169.833;    0.000; 2.64597; 0.11603
 525.27;  176.024;  167.828;    0.000; 2.82293; 0.12393
 525.85;  188.976;  181.069;    0.000; 2.71441; 0.11930
 526.44;  188.867;  180.896;    0.000; 2.72422; 0.11986
 527.02;  197.025;  189.198;    0.000; 2.66599; 0.11743
 527.60;  187.904;  180.011;    0.000; 2.68861; 0.11856
 528.18;  174.735;  166.639;    0.000; 2.74758; 0.12129
 528.76;  203.649;  195.490;    0.000; 2.76366; 0.12213
 529.34;  187.875;  179.736;    0.000; 2.74871; 0.12161
 529.92;  199.053;  190.735;    0.000; 2.78183; 0.12321
 530.51;  193.229;  184.936;    0.000; 2.77202; 0.12291
 531.09;  187.517;  179.047;    0.000; 2.82439; 0.12537
 531.67;  181.378;  173.216;    0.000; 2.71218; 0.12052
 532.25;  202.362;  193.728;    0.000; 2.85615; 0.12705
 532.83;  202.611;  193.951;    0.000; 2.87166; 0.12788
 533.41;  175.464;  166.834;    0.000; 2.82296; 0.12585
 533.99;  204.264;  195.499;    0.000; 2.85148; 0.12726
 534.57;  221.663;  213.242;    0.000; 2.73357; 0.12213
 535.15;  185.228;  176.284;    0.000; 2.88941; 0.12924
 535.74;  179.820;  171.088;    0.000; 2.80539; 0.12561
 536.32;  187.049;  178.227;    0.000; 2.83013; 0.12686
 536.90;  178.886;  170.286;    0.000; 2.76238; 0.12396
 537.48;  191.618;  182.914;    0.000; 2.76219; 0.12408
 538.06;  207.524;  199.132;    0.000; 2.65568; 0.11943
 538.64;  197.297;  189.253;    0.000; 2.53732; 0.11423
 539.22;  184.638;  176.580;    0.000; 2.53388; 0.11419
 539.80;  190.702;  182.768;    0.000; 2.49300; 0.11247
 540.38;  206.615;  198.642;    0.000; 2.49220; 0.11256
 540.96;  176.239;  168.110;    0.000; 2.52173; 0.11401
 541.54;  184.311;  176.044;    0.000; 2.56334; 0.11602
 542.12;  227.161;  218.703;    0.000; 2.61299; 0.11839
 542.70;  173.221;  164.706;    0.000; 2.63109; 0.11934
 543.28;  189.912;  181.199;    0.000; 2.67847; 0.12162
 543.86;  184.903;  175.570;    0.000; 2.87143; 0.13052
 544.44;  236.557;  226.903;    0.000; 2.91719; 0.13274
 545.02;  203.106;  193.188;    0.000; 3.00918; 0.13707
 545.61;  196.236;  185.973;    0.000; 3.09784; 0.14126
 546.19;  197.399;  186.287;    0.000; 3.34945; 0.15290
 546.77;  194.472;  183.029;    0.000; 3.44290; 0.15733
 547.35;  229.232;  217.445;    0.000; 3.50271; 0.16024
 547.93;  205.016;  192.653;    0.000; 3.67617; 0.16835
 548.51;  204.261;  191.460;    0.000; 3.79004; 0.17375
 549.09;  212.798;  199.238;    0.000; 4.00195; 0.18366
 549.67;  215.368;  201.413;    0.000; 4.10305; 0.18849
 550.25;  194.801;  180.467;    0.000; 4.20641; 0.19345
 550.83;  221.071;  206.049;    0.000; 4.39264; 0.20222
 551.41;  208.512;  192.918;    0.000; 4.54813; 0.20960
 551.99;  208.669;  192.633;    0.000; 4.66264; 0.21511
 552.57;  211.191;  194.235;    0.000; 4.90668; 0.22660
 553.15;  228.072;  211.247;    0.000; 4.85523; 0.22446
 553.73;  188.329;  170.796;    0.000; 5.03121; 0.23284
 554.30;  218.737;  201.076;    0.000; 5.05398; 0.23414
 554.88;  207.460;  189.104;    0.000; 5.25295; 0.24361
 555.46;  216.571;  198.076;    0.000; 5.24766; 0.24362
 556.04;  210.357;  191.230;    0.000; 5.41586; 0.25169
 556.62;  230.953;  211.783;    0.000; 5.42586; 0.25242
 557.20;  192.198;  172.510;    0.000; 5.55452; 0.25867
 557.78;  219.557;  199.628;    0.000; 5.57947; 0.26011
 558.36;  233.823;  213.408;    0.000; 5.70638; 0.26630
 558.94;  230.367;  209.962;    0.000; 5.69193; 0.26590
 559.52;  203.616;  182.811;    0.000; 5.78324; 0.27045
 560.10;  217.986;  196.803;    0.000; 5.88682; 0.27558
 560.68;  219.297;  197.623;    0.000; 5.97613; 0.28005
 561.26;  236.918;  215.547;    0.000; 5.89261; 0.27642
 561.84;  196.862;  175.380;    0.000; 5.95160; 0.27947
 562.42;  213.195;  191.749;    0.000; 5.91186; 0.27789
 563.00;  221.058;  198.893;    0.000; 6.08499; 0.28633
 563.58;  217.156;  195.042;    0.000; 6.06718; 0.28578
 564.15;  213.969;  191.750;    0.000; 6.09194; 0.28724
 564.73;  220.248;  197.963;    0.000; 6.07269; 0.28663
 565.31;  232.809;  210.837;    0.000; 5.99871; 0.28343
 565.89;  198.639;  176.434;    0.000; 6.06784; 0.28699
 566.47;  207.752;  185.691;    0.000; 6.01057; 0.28457
 567.05;  226.021;  203.498;    0.000; 6.13798; 0.29090
 567.63;  214.647;  191.789;    0.000; 6.20540; 0.29439
 568.21;  207.617;  184.871;    0.000; 6.15125; 0.29212
 568.79;  230.290;  207.288;    0.000; 6.20914; 0.29517
 569.36;  255.054;  232.325;    0.000; 6.13167; 0.29178
 569.94;  208.906;  186.410;    0.000; 6.11001; 0.29105
 570.52;  227.052;  204.240;    0.000; 6.14218; 0.29288
 571.10;  176.206;  153.339;    0.000; 6.15883; 0.29397
 571.68;  215.923;  193.597;    0.000; 6.00859; 0.28709
 572.26;  227.231;  204.915;    0.000; 5.99863; 0.28690
 572.84;  230.215;  207.933;    0.000; 6.00768; 0.28763
 573.41;  206.179;  184.344;    0.000; 5.88175; 0.28188
 573.99;  249.506;  227.700;    0.000; 5.88540; 0.28234
 574.57;  212.627;  190.892;    0.000; 5.84848; 0.28085
 575.15;  242.181;  221.240;    0.000; 5.64946; 0.27157
 575.73;  227.176;  205.822;    0.000; 5.78459; 0.27835
 576.31;  223.923;  203.119;    0.000; 5.65159; 0.27222
 576.88;  199.350;  178.843;    0.000; 5.54486; 0.26735
 577.46;  206.990;  186.610;    0.000; 5.50543; 0.26571
 578.04;  202.291;  182.413;    0.000; 5.38968; 0.26038
 578.62;  199.669;  180.395;    0.000; 5.26551; 0.25464
 579.20;  205.087;  185.708;    0.000; 5.30208; 0.25667
 579.78;  213.145;  194.199;    0.000; 5.16350; 0.25021
 580.35;  212.702;  194.157;    0.000; 5.06178; 0.24552
 580.93;  200.557;  182.196;    0.000; 5.02494; 0.24398
 581.51;  216.339;  198.276;    0.000; 4.94860; 0.24051
 582.09;  193.296;  175.599;    0.000; 4.86121; 0.23650
 582.67;  193.654;  176.413;    0.000; 4.74119; 0.23089
 583.24;  198.144;  180.675;    0.000; 4.81725; 0.23482
 583.82;  197.926;  181.014;    0.000; 4.65565; 0.22717
 584.40;  197.762;  181.026;    0.000; 4.63918; 0.22659
 584.98;  198.145;  181.635;    0.000; 4.56488; 0.22318
 585.55;  208.540;  192.362;    0.000; 4.46756; 0.21864
 586.13;  182.811;  167.212;    0.000; 4.30111; 0.21070
 586.71;  203.212;  187.714;    0.000; 4.28142; 0.20994
 587.29;  199.539;  184.222;    0.000; 4.22499; 0.20738
 587.86;  198.231;  183.243;    0.000; 4.14986; 0.20389
 588.44;  163.016;  148.258;    0.000; 4.08655; 0.20098
 589.02;  215.079;  200.481;    0.000; 4.04776; 0.19927
 589.60;  191.651;  177.644;    0.000; 3.89495; 0.19193
 590.17;  201.456;  187.397;    0.000; 3.92118; 0.19342
 590.75;  179.354;  165.809;    0.000; 3.80006; 0.18762
 591.33;  177.974;  164.958;    0.000; 3.66729; 0.18125
 591.91;  189.451;  176.505;    0.000; 3.65745; 0.18094
 592.48;  183.503;  170.959;    0.000; 3.57369; 0.17696
 593.06;  202.391;  189.817;    0.000; 3.58889; 0.17789
 593.64;  196.034;  183.993;    0.000; 3.46018; 0.17168
 594.21;  180.587;  168.773;    0.000; 3.42489; 0.17009
 594.79;  191.239;  179.743;    0.000; 3.34205; 0.16614
 595.37;  190.244;  179.113;    0.000; 3.24729; 0.16158
 595.95;  174.758;  163.901;    0.000; 3.18604; 0.15869
 596.52;  184.965;  174.235;    0.000; 3.14514; 0.15681
 597.10;  191.428;  180.885;    0.000; 3.11001; 0.15520
 597.68;  175.686;  165.189;    0.000; 3.09444; 0.15458
 598.25;  195.537;  185.539;    0.000; 2.97436; 0.14872
 598.83;  176.192;  166.601;    0.000; 2.87886; 0.14408
 599.41;  187.536;  177.871;    0.000; 2.90896; 0.14573
 599.98;  215.001;  205.520;    0.000; 2.86021; 0.14343
 600.56;  201.880;  192.629;    0.000; 2.81249; 0.14117
 601.14;  183.900;  174.551;    0.000; 2.84612; 0.14299
 601.71;  188.644;  179.510;    0.000; 2.79269; 0.14044
 602.29;  176.139;  167.253;    0.000; 2.72570; 0.13721
 602.87;  200.407;  191.779;    0.000; 2.66426; 0.13424
 603.44;  195.606;  187.005;    0.000; 2.66547; 0.13443
 604.02;  185.561;  177.196;    0.000; 2.60247; 0.13138
 604.60;  208.540;  200.098;    0.000; 2.63908; 0.13336
 605.17;  213.758;  205.706;    0.000; 2.53893; 0.12842
 605.75;  207.122;  199.328;    0.000; 2.45600; 0.12434
 606.33;  195.255;  187.322;    0.000; 2.51755; 0.12758
 606.90;  216.363;  208.557;    0.000; 2.48339; 0.12597
 607.48;  203.714;  196.196;    0.000; 2.41441; 0.12258
 608.05;  182.093;  174.758;    0.000; 2.36124; 0.12000
 608.63;  190.261;  182.748;    0.000; 2.43348; 0.12379
 609.21;  179.938;  172.761;    0.000; 2.34055; 0.11917
 609.78;  209.591;  202.609;    0.000; 2.27158; 0.11577
 610.36;  198.916;  191.836;    0.000; 2.31739; 0.11822
 610.93;  201.908;  194.947;    0.000; 2.29637; 0.11725
 611.51;  184.538;  177.580;    0.000; 2.29345; 0.11722
 612.09;  213.437;  206.804;    0.000; 2.20330; 0.11271
 612.66;  195.500;  188.821;    0.000; 2.22773; 0.11407
 613.24;  208.336;  201.964;    0.000; 2.12912; 0.10912
 613.81;  215.186;  208.445;    0.000; 2.26692; 0.11630
 614.39;  209.029;  202.495;    0.000; 2.20625; 0.11329
 614.96;  224.694;  218.285;    0.000; 2.16590; 0.11132
 615.54;  208.163;  201.811;    0.000; 2.16536; 0.11140
 616.12;  218.934;  212.328;    0.000; 2.24959; 0.11584
 616.69;  177.687;  171.290;    0.000; 2.20282; 0.11354
 617.27;  203.920;  197.709;    0.000; 2.14244; 0.11053
 617.84;  183.775;  177.396;    0.000; 2.20637; 0.11393
 618.42;  220.529;  214.402;    0.000; 2.13045; 0.11012
 618.99;  203.264;  197.032;    0.000; 2.16973; 0.11225
 619.57;  222.349;  216.284;    0.000; 2.12152; 0.10986
 620.14;  208.483;  202.433;    0.000; 2.12457; 0.11012
 620.72;  190.007;  183.970;    0.000; 2.12595; 0.11029
 621.30;  212.326;  206.392;    0.000; 2.09725; 0.10890
 621.87;  220.522;  214.702;    0.000; 2.06828; 0.10750
 622.45;  214.403;  208.563;    0.000; 2.08565; 0.10850
 623.02;  185.356;  179.711;    0.000; 2.02044; 0.10521
 623.60;  193.727;  188.319;    0.000; 1.94630; 0.10144
 624.17;  202.597;  197.063;    0.000; 1.98639; 0.10362
 624.75;  212.269;  206.913;    0.000; 1.93883; 0.10124
 625.32;  199.615;  194.223;    0.000; 1.95766; 0.10231
 625.90;  202.840;  197.640;    0.000; 1.89934; 0.09936
 626.47;  217.884;  212.852;    0.000; 1.83961; 0.09632
 627.05;  191.028;  186.156;    0.000; 1.78519; 0.09356
 627.62;  206.046;  200.994;    0.000; 1.86210; 0.09768
 628.20;  225.240;  220.370;    0.000; 1.79462; 0.09422
 628.77;  218.270;  213.560;    0.000; 1.74441; 0.09167
 629.34;  236.955;  231.999;    0.000; 1.83732; 0.09664
 629.92;  196.636;  191.508;    0.000; 1.91113; 0.10062
 630.49;  220.053;  215.131;    0.000; 1.84096; 0.09701
 631.07;  194.950;  189.923;    0.000; 1.88459; 0.09940
 631.64;  195.117;  190.304;    0.000; 1.80841; 0.09547
 632.22;  239.755;  234.880;    0.000; 1.83856; 0.09715
 632.79;  211.685;  206.983;    0.000; 1.77472; 0.09386
 633.37;  217.608;  213.034;    0.000; 1.73561; 0.09188
 633.94;  211.515;  206.835;    0.000; 1.78351; 0.09450
 634.52;  207.897;  203.455;    0.000; 1.69441; 0.08986
 635.09;  219.980;  215.626;    0.000; 1.66310; 0.08828
 635.66;  188.090;  183.681;    0.000; 1.68486; 0.08951
 636.24;  201.307;  197.050;    0.000; 1.63603; 0.08700
 636.81;  243.540;  239.273;    0.000; 1.63895; 0.08723
 637.39;  225.222;  220.878;    0.000; 1.66931; 0.08893
 637.96;  221.643;  217.592;    0.000; 1.56044; 0.08320
 638.54;  221.431;  216.975;    0.000; 1.72338; 0.09197
 639.11;  196.972;  192.690;    0.000; 1.66146; 0.08875
 639.68;  222.260;  217.917;    0.000; 1.69051; 0.09038
 640.26;  207.072;  202.863;    0.000; 1.63841; 0.08767
 640.83;  209.334;  205.388;    0.000; 1.54218; 0.08260
 641.41;  201.929;  197.788;    0.000; 1.61315; 0.08648
 641.98;  208.445;  204.495;    0.000; 1.54879; 0.08310
 642.55;  186.512;  182.635;    0.000; 1.51928; 0.08159
 643.13;  205.883;  201.958;    0.000; 1.53949; 0.08275
 643.70;  223.829;  219.887;    0.000; 1.55323; 0.08356
 644.27;  210.667;  206.853;    0.000; 1.49523; 0.08051
 644.85;  200.106;  196.187;    0.000; 1.54991; 0.08353
 645.42;  207.675;  203.855;    0.000; 1.50768; 0.08133
 645.99;  197.162;  193.214;    0.000; 1.56338; 0.08441
 646.57;  201.711;  197.790;    0.000; 1.55071; 0.08380
 647.14;  209.402;  205.513;    0.000; 1.53860; 0.08322
 647.72;  188.380;  184.430;    0.000; 1.56998; 0.08499
 648.29;  197.945;  193.897;    0.000; 1.60132; 0.08676
 648.86;  223.524;  219.398;    0.000; 1.64011; 0.08894
 649.44;  191.712;  187.823;    0.000; 1.54621; 0.08393
 650.01;  197.735;  193.818;    0.000; 1.56027; 0.08476
 650.58;  208.426;  204.393;    0.000; 1.60864; 0.08747
 651.16;  205.452;  201.589;    0.000; 1.54258; 0.08395
 651.73;  195.277;  191.494;    0.000; 1.50326; 0.08188
 652.30;  211.211;  207.512;    0.000; 1.47480; 0.08040
 652.87;  196.915;  193.206;    0.000; 1.48200; 0.08087
 653.45;  217.503;  213.790;    0.000; 1.48363; 0.08103
 654.02;  194.384;  190.733;    0.000; 1.46093; 0.07986
 654.59;  203.427;  199.788;    0.000; 1.45789; 0.07976
 655.17;  206.713;  203.207;    0.000; 1.39184; 0.07621
 655.74;  192.203;  188.642;    0.000; 1.41745; 0.07768
 656.31;  206.012;  202.529;    0.000; 1.38460; 0.07595
 656.89;  204.098;  200.547;    0.000; 1.40678; 0.07723
 657.46;  210.964;  207.399;    0.000; 1.41440; 0.07772
 658.03;  217.672;  214.310;    0.000; 1.33367; 0.07335
 658.60;  200.347;  196.963;    0.000; 1.33729; 0.07361
 659.18;  213.072;  209.735;    0.000; 1.31127; 0.07224
 659.75;  200.912;  197.555;    0.000; 1.31541; 0.07253
 660.32;  218.651;  215.300;    0.000; 1.31086; 0.07234
 660.89;  199.330;  195.763;    0.000; 1.39220; 0.07690
 661.47;  217.839;  214.524;    0.000; 1.28998; 0.07132
 662.04;  218.451;  215.034;    0.000; 1.32494; 0.07331
 662.61;  201.387;  197.793;    0.000; 1.38758; 0.07684
 663.18;  207.186;  203.574;    0.000; 1.38148; 0.07657
 663.76;  187.239;  183.694;    0.000; 1.35944; 0.07542
 664.33;  214.085;  210.577;    0.000; 1.33627; 0.07419
 664.90;  210.224;  206.838;    0.000; 1.28633; 0.07148
 665.47;  205.280;  201.716;    0.000; 1.35377; 0.07530
 666.05;  197.456;  193.873;    0.000; 1.35303; 0.07532
 666.62;  229.050;  225.326;    0.000; 1.40837; 0.07847
 667.19;  194.916;  191.287;    0.000; 1.37666; 0.07677
 667.76;  191.556;  188.056;    0.000; 1.32780; 0.07410
 668.33;  193.822;  190.223;    0.000; 1.36599; 0.07630
 668.91;  186.580;  183.084;    0.000; 1.33551; 0.07466
 669.48;  199.998;  196.380;    0.000; 1.38096; 0.07727
 670.05;  186.645;  182.957;    0.000; 1.41656; 0.07933
 670.62;  208.046;  204.693;    0.000; 1.28620; 0.07209
 671.19;  204.535;  200.941;    0.000; 1.38011; 0.07742
 671.76;  212.111;  208.683;    0.000; 1.32185; 0.07422
 672.34;  194.292;  190.743;    0.000; 1.37308; 0.07716
 672.91;  201.307;  197.980;    0.000; 1.28923; 0.07251
 673.48;  194.323;  190.811;    0.000; 1.36576; 0.07688
 674.05;  216.596;  213.140;    0.000; 1.34751; 0.07591
 674.62;  211.522;  208.180;    0.000; 1.29511; 0.07302
 675.19;  204.299;  200.899;    0.000; 1.32002; 0.07449
 675.77;  210.046;  206.426;    0.000; 1.40121; 0.07914
 676.34;  182.360;  178.895;    0.000; 1.34754; 0.07617
 676.91;  197.258;  194.029;    0.000; 1.25572; 0.07104
 677.48;  202.625;  199.372;    0.000; 1.26775; 0.07178
 678.05;  199.658;  196.436;    0.000; 1.25056; 0.07087
 678.62;  211.313;  207.949;    0.000; 1.30228; 0.07386
 679.19;  204.551;  201.301;    0.000; 1.25496; 0.07124
 679.77;  196.407;  193.119;    0.000; 1.27271; 0.07231
 680.34;  165.392;  162.121;    0.000; 1.25632; 0.07144
 680.91;  193.955;  190.488;    0.000; 1.33396; 0.07591
 681.48;  198.566;  195.248;    0.000; 1.27543; 0.07264
 682.05;  203.413;  199.900;    0.000; 1.34531; 0.07669
 682.62;  174.822;  171.133;    0.000; 1.41578; 0.08077
 683.19;  191.908;  188.187;    0.000; 1.42825; 0.08155
 683.76;  202.167;  198.515;    0.000; 1.39978; 0.07999
 684.33;  203.720;  200.154;    0.000; 1.37373; 0.07857
 684.90;  182.455;  178.873;    0.000; 1.38096; 0.07905
 685.48;  185.061;  181.391;    0.000; 1.42154; 0.08144
 686.05;  181.431;  177.879;    0.000; 1.36773; 0.07842
 686.62;  202.658;  199.309;    0.000; 1.29395; 0.07426
 687.19;  183.180;  179.618;    0.000; 1.38611; 0.07961
 687.76;  192.179;  188.574;    0.000; 1.39218; 0.08002
 688.33;  195.149;  191.478;    0.000; 1.41411; 0.08135
 688.90;  192.697;  189.128;    0.000; 1.38517; 0.07975
 689.47;  155.846;  152.047;    0.000; 1.47269; 0.08486
 690.04;  181.100;  177.458;    0.000; 1.41001; 0.08132
 690.61;  189.620;  186.277;    0.000; 1.29353; 0.07466
 691.18;  171.784;  168.229;    0.000; 1.37390; 0.07937
 691.75;  213.892;  210.451;    0.000; 1.32715; 0.07673
 692.32;  196.706;  193.272;    0.000; 1.32837; 0.07686
 692.89;  213.495;  210.195;    0.000; 1.26722; 0.07339
 693.46;  196.808;  193.637;    0.000; 1.21626; 0.07049
 694.03;  191.363;  188.215;    0.000; 1.21179; 0.07029
 694.60;  200.101;  196.818;    0.000; 1.26285; 0.07331
 695.17;  194.448;  191.136;    0.000; 1.27131; 0.07386
 695.74;  183.757;  180.665;    0.000; 1.18541; 0.06893
 696.31;  189.714;  186.786;    0.000; 1.11881; 0.06511
 696.88;  198.304;  195.283;    0.000; 1.15267; 0.06714
 697.45;  182.420;  179.592;    0.000; 1.07944; 0.06292
 698.02;  168.283;  165.211;    0.000; 1.17251; 0.06840
 698.59;  171.675;  168.625;    0.000; 1.16438; 0.06798
 699.16;  178.611;  175.534;    0.000; 1.17500; 0.06866
 699.73;  192.680;  189.533;    0.000; 1.19541; 0.06991
 700.30;  178.448;  175.615;    0.000; 1.07698; 0.06304
 700.87;  195.773;  192.765;    0.000; 1.13554; 0.06652
 701.44;  194.436;  191.410;    0.000; 1.14211; 0.06696
 702.01;  189.773;  186.811;    0.000; 1.12281; 0.06588
 702.58;  211.059;  208.302;    0.000; 1.04194; 0.06118
 703.15;  177.609;  175.191;    0.000; 0.90959; 0.05345
 703.72;  195.101;  192.252;    0.000; 1.07348; 0.06314
 704.29;  174.212;  171.328;    0.000; 1.08463; 0.06384
 704.86;  201.397;  198.210;    0.000; 1.19795; 0.07057
 705.43;  194.120;  191.317;    0.000; 1.04895; 0.06184
 706.00;  191.879;  188.895;    0.000; 1.11450; 0.06576
 706.57;  185.163;  182.300;    0.000; 1.07088; 0.06324
 707.14;  178.761;  176.081;    0.000; 1.00273; 0.05926
 707.70;  215.878;  213.074;    0.000; 1.04899; 0.06205
 708.27;  183.928;  181.095;    0.000; 1.05845; 0.06266
 708.84;  179.139;  176.302;    0.000; 1.06063; 0.06284
 709.41;  162.569;  159.793;    0.000; 1.03683; 0.06148
 709.98;  209.524;  206.535;    0.000; 1.11348; 0.06607
 710.55;  180.875;  177.773;    0.000; 1.15730; 0.06873
 711.12;  205.922;  202.562;    0.000; 1.24975; 0.07428
 711.69;  198.471;  195.075;    0.000; 1.25816; 0.07484
 712.26;  200.751;  197.305;    0.000; 1.27985; 0.07619
 712.83;  216.617;  213.161;    0.000; 1.27455; 0.07593
 713.39;  202.196;  198.866;    0.000; 1.23497; 0.07363
 713.96;  210.961;  207.788;    0.000; 1.17380; 0.07004
 714.53;  198.042;  194.621;    0.000; 1.26718; 0.07568
 715.10;  196.668;  193.456;    0.000; 1.18883; 0.07105
 715.67;  178.991;  175.859;    0.000; 1.15971; 0.06937
 716.24;  200.168;  197.213;    0.000; 1.09300; 0.06543
 716.81;  216.640;  213.768;    0.000; 1.05871; 0.06343
 717.37;  200.644;  197.773;    0.000; 1.06438; 0.06382
 717.94;  204.291;  201.605;    0.000; 0.99250; 0.05955
 718.51;  208.491;  205.478;    0.000; 1.11157; 0.06675
 719.08;  191.119;  188.312;    0.000; 1.03680; 0.06231
 719.65;  216.081;  213.466;    0.000; 0.96606; 0.05811
 720.22;  213.611;  210.821;    0.000; 1.03249; 0.06215
 720.78;  204.960;  202.458;    0.000; 0.92233; 0.05556
 721.35;  190.916;  188.071;    0.000; 1.04820; 0.06320
 721.92;  219.023;  216.281;    0.000; 1.01062; 0.06098
 722.49;  206.437;  204.032;    0.000; 0.88698; 0.05356
 723.06;  202.483;  199.930;    0.000; 0.94356; 0.05702
 723.63;  174.890;  172.234;    0.000; 0.98198; 0.05939
 724.19;  215.056;  212.616;    0.000; 0.89658; 0.05427
 724.76;  197.705;  195.146;    0.000; 0.94563; 0.05728
 725.33;  202.243;  199.664;    0.000; 0.95137; 0.05767
 725.90;  222.380;  219.561;    0.000; 1.03822; 0.06299
 726.46;  204.628;  202.049;    0.000; 0.95302; 0.05786
 727.03;  224.176;  221.608;    0.000; 0.94678; 0.05753
 727.60;  165.055;  162.259;    0.000; 1.03311; 0.06282
 728.17;  208.515;  205.588;    0.000; 1.08282; 0.06590
 728.74;  211.594;  208.620;    0.000; 1.10231; 0.06714
 729.30;  198.314;  195.409;    0.000; 1.07657; 0.06562
 729.87;  198.657;  195.854;    0.000; 1.03730; 0.06328
 730.44;  222.422;  219.386;    0.000; 1.12553; 0.06871
 731.01;  212.337;  209.656;    0.000; 0.99554; 0.06082
 731.57;  194.749;  191.804;    0.000; 1.09477; 0.06694
 732.14;  191.396;  188.507;    0.000; 1.07781; 0.06595
 732.71;  193.420;  190.270;    0.000; 1.17300; 0.07183
 733.28;  231.523;  228.544;    0.000; 1.10848; 0.06793
 733.84;  193.319;  190.307;    0.000; 1.12216; 0.06883
 734.41;  191.696;  188.773;    0.000; 1.09352; 0.06712
 734.98;  211.019;  208.076;    0.000; 1.09548; 0.06729
 735.54;  227.173;  224.329;    0.000; 1.05715; 0.06499
 736.11;  196.119;  193.353;    0.000; 1.03507; 0.06368
 736.68;  187.607;  184.804;    0.000; 1.04970; 0.06463
 737.25;  197.446;  194.719;    0.000; 1.02041; 0.06288
 737.81;  208.233;  205.715;    0.000; 0.94535; 0.05830
 738.38;  204.627;  201.516;    0.000; 1.16942; 0.07217
 738.95;  220.466;  217.276;    0.000; 1.19722; 0.07394
 739.51;  213.822;  211.047;    0.000; 1.04959; 0.06487
 740.08;  209.596;  206.865;    0.000; 1.03395; 0.06395
 740.65;  194.230;  191.395;    0.000; 1.07457; 0.06652
 741.21;  208.589;  205.628;    0.000; 1.11967; 0.06936
 741.78;  212.236;  209.473;    0.000; 1.04868; 0.06501
 742.35;  205.439;  202.803;    0.000; 1.00271; 0.06221
 742.91;  221.079;  218.375;    0.000; 1.02616; 0.06372
 743.48;  206.519;  203.982;    0.000; 0.97160; 0.06037
 744.05;  201.104;  198.506;    0.000; 0.99505; 0.06188
 744.61;  208.036;  205.320;    0.000; 1.03898; 0.06466
 745.18;  192.173;  189.867;    0.000; 0.88565; 0.05516
 745.75;  203.738;  201.404;    0.000; 0.90005; 0.05610
 746.31;  233.759;  231.278;    0.000; 0.95530; 0.05959
 746.88;  203.982;  201.559;    0.000; 0.93844; 0.05858
 747.44;  201.944;  199.541;    0.000; 0.93150; 0.05819
 748.01;  230.117;  227.740;    0.000; 0.92215; 0.05765
 748.58;  210.887;  208.465;    0.000; 0.94088; 0.05887
 749.14;  200.783;  198.317;    0.000; 0.96114; 0.06018
 749.71;  200.202;  197.647;    0.000; 1.00081; 0.06271
 750.28;  207.833;  205.587;    0.000; 0.87575; 0.05492
 750.84;  208.508;  206.195;    0.000; 0.90856; 0.05702
 751.41;  194.282;  191.817;    0.000; 0.97020; 0.06093
 751.97;  207.973;  205.619;    0.000; 0.92451; 0.05810
 752.54;  197.246;  194.807;    0.000; 0.96192; 0.06050
 753.11;  195.356;  192.871;    0.000; 0.98674; 0.06211
 753.67;  205.664;  203.147;    0.000; 1.00129; 0.06307
 754.24;  199.133;  196.902;    0.000; 0.88808; 0.05598
 754.80;  223.951;  221.715;    0.000; 0.89900; 0.05671
 755.37;  183.580;  181.201;    0.000; 0.95353; 0.06020
 755.93;  216.871;  214.444;    0.000; 0.97673; 0.06171
 756.50;  210.271;  207.856;    0.000; 0.97081; 0.06138
 757.07;  212.515;  210.221;    0.000; 0.92791; 0.05871
 757.63;  184.850;  182.518;    0.000; 0.94760; 0.06000
 758.20;  191.246;  188.772;    0.000; 1.01046; 0.06403
 758.76;  198.698;  196.408;    0.000; 0.93824; 0.05950
 759.33;  172.147;  169.729;    0.000; 0.99729; 0.06329
 759.89;  198.933;  196.576;    0.000; 0.97195; 0.06173
 760.46;  198.644;  196.075;    0.000; 1.06631; 0.06777
 761.02;  213.089;  210.517;    0.000; 1.06786; 0.06792
 761.59;  194.150;  191.682;    0.000; 1.02867; 0.06548
 762.15;  211.884;  209.293;    0.000; 1.08610; 0.06918
 762.72;  197.482;  194.859;    0.000; 1.10314; 0.07032
 763.28;  187.397;  184.595;    0.000; 1.18145; 0.07537
 763.85;  202.537;  198.914;    0.000; 1.52721; 0.09750
 764.41;  206.474;  202.034;    0.000; 1.89266; 0.12092
 764.98;  211.944;  207.687;    0.000; 1.82019; 0.11638
 765.54;  208.863;  205.484;    0.000; 1.45006; 0.09278
 766.11;  203.801;  200.974;    0.000; 1.21781; 0.07798
 766.67;  182.502;  179.953;    0.000; 1.10034; 0.07051
 767.24;  205.047;  202.608;    0.000; 1.05242; 0.06749
 767.80;  193.186;  190.945;    0.000; 0.97355; 0.06247
 768.37;  191.442;  189.381;    0.000; 0.90135; 0.05788
 768.93;  192.263;  189.886;    0.000; 1.04396; 0.06709
 769.50;  200.026;  197.866;    0.000; 0.95362; 0.06133
 770.06;  189.006;  187.600;    0.000; 0.62232; 0.04005
 770.63;  197.216;  195.087;    0.000; 0.94786; 0.06105
 771.19;  193.880;  191.714;    0.000; 0.96945; 0.06249
 771.75;  181.758;  179.829;    0.000; 0.86531; 0.05581
 772.32;  183.791;  181.957;    0.000; 0.82923; 0.05353
 772.88;  199.079;  197.152;    0.000; 0.87152; 0.05630
 773.45;  192.140;  190.355;    0.000; 0.81169; 0.05247
 774.01;  194.721;  192.787;    0.000; 0.88595; 0.05731
 774.58;  192.147;  190.475;    0.000; 0.76935; 0.04981
 775.14;  214.304;  212.613;    0.000; 0.77545; 0.05024
 775.70;  214.016;  212.575;    0.000; 0.66792; 0.04330
 776.27;  204.594;  202.523;    0.000; 0.96584; 0.06266
 776.83;  208.306;  206.408;    0.000; 0.88746; 0.05762
 777.40;  186.195;  184.363;    0.000; 0.85881; 0.05580
 777.96;  190.197;  188.412;    0.000; 0.84248; 0.05478
 778.52;  211.383;  209.650;    0.000; 0.81924; 0.05331
 779.09;  204.661;  203.018;    0.000; 0.78690; 0.05124
 779.65;  206.186;  204.416;    0.000; 0.85072; 0.05543
 780.22;  192.282;  190.441;    0.000; 0.88869; 0.05795
 780.78;  220.527;  218.732;    0.000; 0.87233; 0.05692
 781.34;  216.150;  214.452;    0.000; 0.82640; 0.05397
 781.91;  195.421;  193.583;    0.000; 0.89850; 0.05872
 782.47;  238.445;  236.577;    0.000; 0.91781; 0.06002
 783.03;  216.009;  214.182;    0.000; 0.90239; 0.05906
 783.60;  194.938;  193.108;    0.000; 0.91324; 0.05981
 784.16;  224.005;  222.210;    0.000; 0.89895; 0.05892
 784.72;  197.909;  196.211;    0.000; 0.85216; 0.05589
 785.29;  205.756;  204.153;    0.000; 0.80763; 0.05301
 785.85;  225.385;  223.615;    0.000; 0.89640; 0.05888
 786.41;  209.907;  208.218;    0.000; 0.86051; 0.05656
 786.98;  201.641;  199.710;    0.000; 0.99138; 0.06521
 787.54;  224.216;  222.452;    0.000; 0.90883; 0.05982
 788.10;  201.516;  199.789;    0.000; 0.89871; 0.05920
 788.67;  215.417;  213.533;    0.000; 0.98393; 0.06486
 789.23;  203.775;  201.375;    0.000; 1.25742; 0.08294
 789.79;  215.405;  213.339;    0.000; 1.08805; 0.07182
 790.36;  196.311;  194.229;    0.000; 1.10222; 0.07281
 790.92;  210.639;  208.772;    0.000; 0.99336; 0.06566
 791.48;  198.316;  196.392;    0.000; 1.03227; 0.06829
 792.05;  218.013;  216.341;    0.000; 0.90177; 0.05970
 792.61;  208.617;  206.902;    0.000; 0.92403; 0.06121
 793.17;  213.329;  211.715;    0.000; 0.88012; 0.05834
 793.73;  216.369;  214.606;    0.000; 0.96107; 0.06376
 794.30;  213.555;  211.929;    0.000; 0.89288; 0.05927
 794.86;  223.560;  221.913;    0.000; 0.91039; 0.06048
 795.42;  207.415;  205.794;    0.000; 0.90793; 0.06036
 795.98;  207.193;  205.452;    0.000; 0.97333; 0.06475
 796.55;  195.858;  193.889;    0.000; 1.10880; 0.07382
 797.11;  214.597;  212.696;    0.000; 1.07561; 0.07166
 797.67;  246.709;  244.860;    0.000; 1.04845; 0.06990
 798.23;  187.359;  185.409;    0.000; 1.11922; 0.07467
 798.80;  218.357;  216.536;    0.000; 1.04923; 0.07005
 799.36;  221.850;  219.938;    0.000; 1.10355; 0.07373
 799.92;  215.607;  213.884;    0.000; 0.99820; 0.06674
 800.48;  221.569;  219.708;    0.000; 1.08539; 0.07262
 801.05;  217.451;  215.602;    0.000; 1.08862; 0.07288
 801.61;  218.569;  216.911;    0.000; 0.97468; 0.06530
 802.17;  206.239;  204.526;    0.000; 1.01726; 0.06820
 802.73;  222.178;  220.336;    0.000; 1.09724; 0.07362
 803.29;  188.043;  186.290;    0.000; 1.05137; 0.07059
 803.86;  217.543;  215.896;    0.000; 0.99256; 0.06669
 804.42;  223.643;  222.030;    0.000; 0.98027; 0.06591
 804.98;  238.290;  236.887;    0.000; 0.85807; 0.05773
 805.54;  223.255;  221.670;    0.000; 0.97510; 0.06565
 806.10;  220.413;  218.700;    0.000; 1.05269; 0.07092
 806.66;  252.385;  250.639;    0.000; 1.08005; 0.07282
 807.23;  224.546;  222.848;    0.000; 1.06139; 0.07161
 807.79;  221.200;  219.513;    0.000; 1.06506; 0.07191
 808.35;  227.922;  226.226;    0.000; 1.06664; 0.07206
 808.91;  208.881;  207.321;    0.000; 0.98899; 0.06686
 809.47;  199.187;  197.445;    0.000; 1.11816; 0.07565
 810.03;  213.252;  211.485;    0.000; 1.13714; 0.07699
 810.60;  242.274;  240.587;    0.000; 1.09387; 0.07411
 811.16;  206.780;  205.052;    0.000; 1.11529; 0.07561
 811.72;  242.161;  240.418;    0.000; 1.12803; 0.07653
 812.28;  210.081;  208.518;    0.000; 1.01677; 0.06903
 812.84;  232.220;  230.561;    0.000; 1.08310; 0.07358
 813.40;  244.972;  243.319;    0.000; 1.08237; 0.07358
 813.96;  234.605;  232.823;    0.000; 1.16818; 0.07947
 814.52;  234.064;  232.481;    0.000; 1.04378; 0.07106
 815.09;  221.335;  219.620;    0.000; 1.12748; 0.07681
 815.65;  236.009;  234.214;    0.000; 1.19143; 0.08122
 816.21;  225.422;  223.398;    0.000; 1.33836; 0.09130
 816.77;  229.716;  228.014;    0.000; 1.12388; 0.07672
 817.33;  227.727;  225.855;    0.000; 1.24701; 0.08518
 817.89;  224.125;  222.413;    0.000; 1.14681; 0.07839
 818.45;  257.005;  255.161;    0.000; 1.24106; 0.08489
 819.01;  231.447;  229.619;    0.000; 1.23351; 0.08444
 819.57;  230.655;  228.482;    0.000; 1.48464; 0.10170
 820.13;  229.391;  227.388;    0.000; 1.37147; 0.09401
 820.69;  248.263;  245.616;    0.000; 1.81411; 0.12443
 821.25;  227.293;  224.390;    0.000; 2.00949; 0.13793
 821.82;  217.430;  213.851;    0.000; 2.50362; 0.17196
 822.38;  239.129;  232.814;    0.000; 4.41909; 0.30374
 822.94;  244.852;  233.838;    0.000; 7.73635; 0.53210
 823.50;  245.805;  233.059;    0.000; 9.02177; 0.62094
 824.06;  241.304;  231.514;    0.000; 6.97895; 0.48066
 824.62;  232.152;  225.407;    0.000; 4.84739; 0.33408
 825.18;  259.497;  254.397;    0.000; 3.67257; 0.25329
 825.74;  219.518;  215.551;    0.000; 2.87340; 0.19830
 826.30;  219.405;  215.793;    0.000; 2.63273; 0.18182
 826.86;  223.322;  219.468;    0.000; 2.82162; 0.19500
 827.42;  239.437;  234.348;    0.000; 3.74423; 0.25893
 827.98;  245.368;  238.974;    0.000; 4.71840; 0.32652
 828.54;  233.223;  228.022;    0.000; 3.85978; 0.26728
 829.10;  220.327;  216.530;    0.000; 2.83871; 0.19671
 829.66;  241.236;  238.425;    0.000; 2.10650; 0.14607
 830.22;  222.649;  220.181;    0.000; 1.86195; 0.12920
 830.78;  211.521;  209.477;    0.000; 1.55380; 0.10789
 831.34;  225.703;  223.777;    0.000; 1.46557; 0.10183
 831.90;  239.675;  237.726;    0.000; 1.49714; 0.10409
 832.46;  226.443;  224.541;    0.000; 1.46833; 0.10216
 833.02;  199.512;  197.532;    0.000; 1.53064; 0.10657
 833.58;  231.551;  229.510;    0.000; 1.57917; 0.11002
 834.14;  224.338;  220.960;    0.000; 2.63005; 0.18336
 834.70;  233.358;  229.437;    0.000; 3.05342; 0.21301
 835.25;  202.768;  199.195;    0.000; 2.79536; 0.19514
 835.81;  212.441;  209.764;    0.000; 2.11428; 0.14770
 836.37;  225.936;  223.596;    0.000; 1.86389; 0.13029
 836.93;  235.645;  233.618;    0.000; 1.61320; 0.11284
 837.49;  230.266;  228.551;    0.000; 1.36369; 0.09545
 838.05;  207.894;  206.352;    0.000; 1.23410; 0.08644
 838.61;  216.649;  215.031;    0.000; 1.29880; 0.09103
 839.17;  213.249;  211.081;    0.000; 1.75226; 0.12290
 839.73;  223.776;  221.999;    0.000; 1.44222; 0.10122
 840.29;  229.479;  227.645;    0.000; 1.49587; 0.10505
 840.85;  209.771;  207.421;    0.000; 1.91572; 0.13463
 841.41;  220.157;  217.914;    0.000; 1.83860; 0.12930
 841.97;  222.085;  220.161;    0.000; 1.58504; 0.11154
 842.52;  220.160;  218.606;    0.000; 1.28151; 0.09024
 843.08;  208.203;  206.620;    0.000; 1.31410; 0.09260
 843.64;  211.112;  209.610;    0.000; 1.24931; 0.08809
 844.20;  220.696;  219.192;    0.000; 1.26354; 0.08915
 844.76;  231.140;  229.630;    0.000; 1.27139; 0.08976
 845.32;  184.797;  183.322;    0.000; 1.24501; 0.08796
 845.88;  214.787;  213.378;    0.000; 1.19047; 0.08416
 846.44;  224.131;  222.674;    0.000; 1.23937; 0.08768
 846.99;  236.991;  235.767;    0.000; 1.04297; 0.07383
 847.55;  219.269;  217.724;    0.000; 1.31786; 0.09335
 848.11;  188.353;  187.810;    0.000; 0.46725; 0.03312
 848.67;  211.112;  209.743;    0.000; 1.17735; 0.08351
 849.23;  192.097;  190.780;    0.000; 1.13655; 0.08067
 849.79;  214.219;  212.943;    0.000; 1.10927; 0.07878
 850.34;  219.804;  218.396;    0.000; 1.22262; 0.08689
 850.90;  193.391;  191.970;    0.000; 1.23819; 0.08806
 851.46;  228.587;  227.368;    0.000; 1.06318; 0.07566
 852.02;  229.033;  227.556;    0.000; 1.28559; 0.09155
 852.58;  184.311;  183.072;    0.000; 1.09758; 0.07821
 853.13;  208.121;  206.654;    0.000; 1.29840; 0.09258
 853.69;  210.784;  209.516;    0.000; 1.12485; 0.08026
 854.25;  247.467;  246.037;    0.000; 1.26856; 0.09057
 854.81;  206.451;  205.126;    0.000; 1.18407; 0.08459
 855.37;  210.363;  209.136;    0.000; 1.09401; 0.07821
 855.92;  233.117;  231.666;    0.000; 1.30408; 0.09329
 856.48;  211.894;  210.475;    0.000; 1.27603; 0.09134
 857.04;  230.910;  229.600;    0.000; 1.18027; 0.08454
 857.60;  227.354;  226.025;    0.000; 1.19797; 0.08587
 858.16;  222.825;  221.541;    0.000; 1.16502; 0.08356
 858.71;  234.493;  233.122;    0.000; 1.24803; 0.08957
 859.27;  217.949;  216.458;    0.000; 1.36303; 0.09789
 859.83;  216.054;  214.641;    0.000; 1.29746; 0.09324
 860.39;  212.968;  211.466;    0.000; 1.38079; 0.09929
 860.94;  212.821;  211.287;    0.000; 1.41277; 0.10166
 861.50;  206.829;  205.361;    0.000; 1.35506; 0.09757
 862.06;  222.845;  221.536;    0.000; 1.21193; 0.08732
 862.61;  222.656;  221.332;    0.000; 1.22975; 0.08866
 863.17;  194.226;  192.719;    0.000; 1.40227; 0.10116
 863.73;  228.854;  227.325;    0.000; 1.42889; 0.10315
 864.29;  216.690;  215.347;    0.000; 1.25486; 0.09065
 864.84;  223.959;  222.701;    0.000; 1.18020; 0.08531
 865.40;  224.958;  223.301;    0.000; 1.55431; 0.11242
 865.96;  210.203;  208.644;    0.000; 1.47522; 0.10677
 866.51;  217.272;  215.885;    0.000; 1.31572; 0.09529
 867.07;  223.787;  222.294;    0.000; 1.41313; 0.10241
 867.63;  240.019;  238.549;    0.000; 1.40135; 0.10162
 868.18;  232.369;  230.834;    0.000; 1.46066; 0.10599
 868.74;  237.402;  235.953;    0.000; 1.38068; 0.10025
 869.30;  218.975;  217.405;    0.000; 1.50769; 0.10954
 869.86;  207.171;  205.584;    0.000; 1.52493; 0.11086
 870.41;  244.100;  242.432;    0.000; 1.59915; 0.11633
 870.97;  212.887;  211.362;    0.000; 1.47353; 0.10726
 871.52;  217.788;  216.014;    0.000; 1.72810; 0.12588
 872.08;  240.173;  238.608;    0.000; 1.51309; 0.11028
 872.64;  223.963;  222.165;    0.000; 1.74970; 0.12761
 873.19;  202.215;  200.585;    0.000; 1.58197; 0.11545
 873.75;  215.543;  213.885;    0.000; 1.62470; 0.11865
 874.31;  208.219;  206.496;    0.000; 1.68090; 0.12283
 874.86;  232.532;  230.621;    0.000; 1.85404; 0.13557
 875.42;  241.353;  239.574;    0.000; 1.72543; 0.12624
 875.98;  222.475;  220.713;    0.000; 1.71090; 0.12526
 876.53;  225.747;  223.910;    0.000; 1.78102; 0.13048
 877.09;  235.081;  233.058;    0.000; 1.95212; 0.14310
 877.64;  227.322;  225.465;    0.000; 1.79540; 0.13170
 878.20;  223.084;  221.097;    0.000; 1.91717; 0.14072
 878.76;  236.934;  234.806;    0.000; 2.04466; 0.15017
 879.31;  197.903;  195.534;    0.000; 2.27131; 0.16692
 879.87;  231.139;  228.384;    0.000; 2.64638; 0.19461
 880.42;  227.473;  223.729;    0.000; 3.56825; 0.26257
 880.98;  218.045;  211.781;    0.000; 5.95626; 0.43856
 881.54;  254.275;  244.861;    0.000; 8.92739; 0.65775
 882.09;  231.878;  220.819;    0.000;10.47987; 0.77262
 882.65;  248.035;  238.152;    0.000; 9.30097; 0.68613
 883.20;  241.258;  233.557;    0.000; 7.25595; 0.53561
 883.76;  237.604;  231.779;    0.000; 5.46893; 0.40395
 884.31;  233.194;  228.572;    0.000; 4.35017; 0.32152
 884.87;  259.651;  255.751;    0.000; 3.67574; 0.27184
 885.42;  223.253;  219.945;    0.000; 3.11598; 0.23059
 885.98;  210.989;  207.906;    0.000; 2.91891; 0.21614
 886.53;  230.447;  227.739;    0.000; 2.56582; 0.19011
 887.09;  238.876;  236.409;    0.000; 2.35251; 0.17442
 887.65;  229.854;  227.526;    0.000; 2.20931; 0.16390
 888.20;  226.329;  224.257;    0.000; 1.99395; 0.14802
 888.76;  222.127;  220.149;    0.000; 1.90881; 0.14179
 889.31;  232.652;  230.642;    0.000; 1.94590; 0.14463
 889.87;  234.272;  232.361;    0.000; 1.87147; 0.13919
 890.42;  224.414;  221.884;    0.000; 2.49225; 0.18547
 890.98;  229.825;  227.875;    0.000; 1.93745; 0.14427
 891.53;  205.101;  203.050;    0.000; 2.05001; 0.15275
 892.09;  241.551;  239.409;    0.000; 2.14442; 0.15989
 892.64;  222.210;  219.996;    0.000; 2.23452; 0.16671
 893.19;  226.744;  224.495;    0.000; 2.28050; 0.17024
 893.75;  211.526;  208.719;    0.000; 2.87253; 0.21457
 894.30;  245.060;  241.587;    0.000; 3.57230; 0.26701
 894.86;  212.971;  208.079;    0.000; 5.05936; 0.37839
 895.41;  252.127;  247.290;    0.000; 5.02654; 0.37617
 895.97;  216.711;  212.734;    0.000; 4.18801; 0.31361
 896.52;  247.401;  244.211;    0.000; 3.35209; 0.25117
 897.08;  232.022;  229.390;    0.000; 2.78203; 0.20859
 897.63;  246.909;  244.713;    0.000; 2.33430; 0.17512
 898.19;  229.559;  227.415;    0.000; 2.28562; 0.17158
 898.74;  250.554;  248.392;    0.000; 2.32307; 0.17450
 899.29;  245.914;  243.591;    0.000; 2.51318; 0.18889
 899.85;  223.296;  221.378;    0.000; 2.07272; 0.15588
 900.40;  228.889;  227.039;    0.000; 2.01644; 0.15175
 900.96;  231.127;  228.993;    0.000; 2.33837; 0.17608
 901.51;  227.836;  225.680;    0.000; 2.38326; 0.17957
 902.06;  232.169;  230.286;    0.000; 2.07201; 0.15622
 902.62;  242.876;  240.852;    0.000; 2.23674; 0.16874
 903.17;  238.742;  236.432;    0.000; 2.55155; 0.19261
 903.73;  243.713;  240.049;    0.000; 4.05937; 0.30661
 904.28;  227.203;  221.853;    0.000; 5.97085; 0.45127
 904.83;  256.116;  250.732;    0.000; 6.03665; 0.45652
 905.39;  211.354;  206.897;    0.000; 5.01958; 0.37984
 905.94;  233.694;  230.578;    0.000; 3.51133; 0.26587
 906.50;  245.286;  242.997;    0.000; 2.60322; 0.19723
 907.05;  224.132;  222.215;    0.000; 2.18048; 0.16530
 907.60;  243.221;  241.240;    0.000; 2.25763; 0.17125
 908.16;  233.368;  230.872;    0.000; 2.85702; 0.21685
 908.71;  235.985;  234.411;    0.000; 1.80295; 0.13693
 909.26;  240.717;  239.082;    0.000; 1.88638; 0.14335
 909.82;  231.999;  230.260;    0.000; 1.99966; 0.15206
 910.37;  235.026;  233.360;    0.000; 1.93394; 0.14715
 910.92;  245.270;  243.703;    0.000; 1.82826; 0.13919
 911.48;  242.763;  241.096;    0.000; 1.94502; 0.14817
 912.03;  215.911;  213.993;    0.000; 2.24417; 0.17106
 912.58;  233.446;  231.652;    0.000; 2.12277; 0.16191
 913.14;  240.031;  238.096;    0.000; 2.28465; 0.17436
 913.69;  260.003;  257.975;    0.000; 2.39048; 0.18255
 914.24;  225.578;  223.168;    0.000; 2.84775; 0.21760
 914.79;  221.987;  218.681;    0.000; 3.92018; 0.29973
 915.35;  239.118;  234.324;    0.000; 5.71401; 0.43714
 915.90;  249.818;  243.554;    0.000; 7.45127; 0.57039
 916.45;  227.651;  221.323;    0.000; 7.59226; 0.58153
 917.01;  241.662;  236.378;    0.000; 6.37482; 0.48858
 917.56;  235.719;  231.714;    0.000; 4.86197; 0.37286
 918.11;  233.749;  230.542;    0.000; 3.89236; 0.29868
 918.66;  229.995;  227.230;    0.000; 3.36365; 0.25826
 919.22;  241.479;  239.171;    0.000; 2.81422; 0.21621
 919.77;  224.354;  222.075;    0.000; 2.78222; 0.21388
 920.32;  229.586;  227.401;    0.000; 2.68960; 0.20688
 920.87;  236.554;  234.728;    0.000; 2.24060; 0.17245
 921.43;  229.216;  227.194;    0.000; 2.50651; 0.19303
 921.98;  217.138;  215.122;    0.000; 2.51626; 0.19390
 922.53;  221.369;  219.347;    0.000; 2.50483; 0.19313
 923.08;  229.859;  228.000;    0.000; 2.31516; 0.17861
 923.64;  232.158;  230.426;    0.000; 2.17275; 0.16773
 924.19;  235.167;  233.592;    0.000; 1.98213; 0.15310
 924.74;  213.019;  211.427;    0.000; 2.01202; 0.15551
 925.29;  259.861;  258.299;    0.000; 1.98276; 0.15334
 925.84;  241.376;  239.744;    0.000; 2.06910; 0.16011
 926.40;  218.557;  216.928;    0.000; 2.06810; 0.16013
 926.95;  219.542;  218.050;    0.000; 1.90326; 0.14745
 927.50;  219.830;  218.447;    0.000; 1.77661; 0.13772
 928.05;  234.344;  232.769;    0.000; 2.03168; 0.15759
 928.60;  217.705;  216.323;    0.000; 1.78538; 0.13857
 929.15;  234.141;  232.906;    0.000; 1.60404; 0.12457
 929.71;  246.909;  245.244;    0.000; 2.17341; 0.16888
 930.26;  222.407;  220.700;    0.000; 2.24720; 0.17472
 930.81;  231.537;  230.208;    0.000; 1.75101; 0.13622
 931.36;  239.836;  238.344;    0.000; 1.96696; 0.15311
 931.91;  247.874;  246.265;    0.000; 2.13553; 0.16633
 932.46;  244.606;  243.093;    0.000; 2.01579; 0.15710
 933.02;  230.497;  228.907;    0.000; 2.12457; 0.16567
 933.57;  217.027;  215.534;    0.000; 2.01009; 0.15684
 934.12;  220.129;  218.481;    0.000; 2.22175; 0.17346
 934.67;  235.000;  233.504;    0.000; 2.03909; 0.15929
 935.22;  226.393;  225.018;    0.000; 1.86055; 0.14543
 935.77;  250.330;  248.873;    0.000; 1.98789; 0.15547
 936.32;  239.377;  237.640;    0.000; 2.37449; 0.18582
 936.87;  236.825;  235.238;    0.000; 2.18124; 0.17080
 937.42;  233.808;  231.990;    0.000; 2.50749; 0.19646
 937.98;  212.156;  210.220;    0.000; 2.70751; 0.21225
 938.53;  229.061;  226.953;    0.000; 2.94141; 0.23073
 939.08;  218.373;  216.827;    0.000; 2.15455; 0.16910
 939.63;  241.961;  240.318;    0.000; 2.30692; 0.18117
 940.18;  251.779;  250.284;    0.000; 2.10371; 0.16531
 940.73;  227.439;  225.928;    0.000; 2.14654; 0.16877
 941.28;  215.827;  214.189;    0.000; 2.33080; 0.18337
 941.83;  224.488;  223.125;    0.000; 1.95066; 0.15355
 942.38;  216.737;  215.355;    0.000; 1.98348; 0.15622
 942.93;  236.271;  234.781;    0.000; 2.14607; 0.16913
 943.48;  232.405;  230.821;    0.000; 2.29447; 0.18093
 944.03;  217.544;  216.203;    0.000; 1.96249; 0.15484
 944.58;  221.064;  219.551;    0.000; 2.20851; 0.17435
 945.13;  217.611;  216.132;    0.000; 2.18974; 0.17297
 945.68;  209.356;  207.706;    0.000; 2.44383; 0.19316
 946.23;  220.648;  219.250;    0.000; 2.07159; 0.16383
 946.79;  219.941;  218.316;    0.000; 2.42731; 0.19207
 947.34;  238.788;  237.203;    0.000; 2.36078; 0.18692
 947.89;  244.702;  243.257;    0.000; 2.16981; 0.17190
 948.44;  223.657;  222.160;    0.000; 2.25513; 0.17876
 948.99;  223.800;  222.206;    0.000; 2.40769; 0.19097
 949.54;  237.414;  235.660;    0.000; 2.68243; 0.21288
 950.09;  219.500;  217.698;    0.000; 2.76314; 0.21941
 950.64;  223.355;  221.638;    0.000; 2.65383; 0.21085
 951.19;  202.544;  200.515;    0.000; 3.14640; 0.25013
 951.73;  195.442;  193.717;    0.000; 2.70518; 0.21518
 952.28;  237.984;  236.219;    0.000; 2.75928; 0.21961
 952.83;  229.952;  228.392;    0.000; 2.44318; 0.19457
 953.38;  246.870;  245.394;    0.000; 2.32473; 0.18524
 953.93;  225.136;  223.511;    0.000; 2.56986; 0.20489
 954.48;  222.745;  221.143;    0.000; 2.54391; 0.20294
 955.03;  229.746;  228.303;    0.000; 2.30841; 0.18426
 955.58;  226.179;  224.731;    0.000; 2.33401; 0.18641
 956.13;  200.193;  198.764;    0.000; 2.30783; 0.18442
 956.68;  209.855;  208.470;    0.000; 2.26202; 0.18087
 957.23;  199.728;  198.478;    0.000; 2.04882; 0.16391
 957.78;  211.605;  210.414;    0.000; 1.96049; 0.15694
 958.33;  192.516;  190.993;    0.000; 2.53216; 0.20281
 958.88;  218.452;  217.068;    0.000; 2.30582; 0.18479
 959.43;  227.653;  226.542;    0.000; 1.86422; 0.14949
 959.98;  212.750;  211.595;    0.000; 1.93793; 0.15549
 960.53;  245.546;  244.242;    0.000; 2.21545; 0.17785
 961.07;  210.988;  209.472;    0.000; 2.58341; 0.20751
 961.62;  256.855;  255.651;    0.000; 2.05917; 0.16550
 962.17;  219.286;  218.010;    0.000; 2.21172; 0.17786
 962.72;  225.507;  224.051;    0.000; 2.53757; 0.20418
 963.27;  226.023;  224.572;    0.000; 2.51952; 0.20284
 963.82;  211.587;  210.206;    0.000; 2.42705; 0.19551
 964.37;  231.775;  230.530;    0.000; 2.20415; 0.17765
 964.92;  213.629;  212.348;    0.000; 2.27045; 0.18310
 965.46;  202.259;  200.892;    0.000; 2.44600; 0.19737
 966.01;  216.611;  215.337;    0.000; 2.28031; 0.18411
 966.56;  226.627;  225.321;    0.000; 2.35996; 0.19065
 967.11;  232.630;  231.156;    0.000; 2.68048; 0.21666
 967.66;  218.852;  217.493;    0.000; 2.49788; 0.20202
 968.21;  213.127;  211.474;    0.000; 3.06860; 0.24831
 968.75;  233.475;  231.677;    0.000; 3.32651; 0.26934
 969.30;  222.316;  220.692;    0.000; 3.04479; 0.24667
 969.85;  240.515;  238.975;    0.000; 2.88944; 0.23421
 970.40;  229.874;  228.510;    0.000; 2.58439; 0.20961
 970.95;  234.322;  232.674;    0.000; 3.13087; 0.25407
 971.50;  229.677;  228.040;    0.000; 3.14332; 0.25522
 972.04;  230.960;  229.305;    0.000; 3.18584; 0.25882
 972.59;  240.669;  239.094;    0.000; 3.07092; 0.24963
 973.14;  232.882;  231.309;    0.000; 3.08088; 0.25058
 973.69;  240.065;  238.514;    0.000; 3.05426; 0.24855
 974.24;  225.697;  224.179;    0.000; 3.00082; 0.24434
 974.78;  222.195;  220.655;    0.000; 3.07802; 0.25077
 975.33;  252.037;  250.516;    0.000; 3.05403; 0.24895
 975.88;  235.203;  233.681;    0.000; 3.08938; 0.25198
 976.43;  231.837;  230.263;    0.000; 3.22952; 0.26355
 976.97;  227.345;  225.611;    0.000; 3.54878; 0.28977
 977.52;  217.640;  215.799;    0.000; 3.81113; 0.31137
 978.07;  262.740;  260.659;    0.000; 4.32162; 0.35327
 978.62;  251.572;  249.096;    0.000; 5.16819; 0.42271
 979.16;  250.593;  246.752;    0.000; 8.12481; 0.66491
 979.71;  218.254;  214.126;    0.000; 8.74581; 0.71613
 980.26;  239.684;  236.011;    0.000; 7.88566; 0.64606
 980.81;  239.448;  236.533;    0.000; 6.25590; 0.51282
 981.35;  262.320;  260.136;    0.000; 4.73854; 0.38865
 981.90;  249.071;  247.273;    0.000; 3.95373; 0.32447
 982.45;  246.845;  245.093;    0.000; 3.86924; 0.31771
 982.99;  247.483;  245.921;    0.000; 3.47566; 0.28555
 983.54;  247.824;  246.408;    0.000; 3.17909; 0.26133
 984.09;  237.840;  236.422;    0.000; 3.19790; 0.26302
 984.63;  236.146;  234.567;    0.000; 3.59585; 0.29592
 985.18;  247.807;  246.351;    0.000; 3.32345; 0.27365
 985.73;  244.321;  243.005;    0.000; 3.04144; 0.25057
 986.27;  231.483;  230.146;    0.000; 3.09906; 0.25546
 986.82;  238.030;  236.482;    0.000; 3.62079; 0.29863
 987.37;  253.398;  251.654;    0.000; 4.12062; 0.34004
 987.91;  243.905;  242.459;    0.000; 3.43850; 0.28391
 988.46;  252.986;  251.426;    0.000; 3.73831; 0.30884
 989.01;  245.419;  243.988;    0.000; 3.45178; 0.28532
 989.55;  247.948;  246.275;    0.000; 4.08825; 0.33812
 990.10;  255.433;  253.493;    0.000; 4.76130; 0.39400
 990.65;  271.949;  269.596;    0.000; 5.85074; 0.48442
 991.19;  244.785;  241.843;    0.000; 7.35534; 0.60933
 991.74;  261.569;  257.888;    0.000; 9.18959; 0.76171
 992.29;  251.479;  247.762;    0.000; 9.40073; 0.77964
 992.83;  262.561;  259.670;    0.000; 7.39961; 0.61401
 993.38;  257.396;  254.755;    0.000; 6.73955; 0.55955
 993.92;  234.014;  231.897;    0.000; 5.50842; 0.45759
 994.47;  224.817;  223.088;    0.000; 4.53314; 0.37678
 995.02;  240.386;  238.738;    0.000; 4.34034; 0.36095
 995.56;  264.989;  263.320;    0.000; 4.45178; 0.37042
 996.11;  252.908;  251.330;    0.000; 4.22408; 0.35167
 996.65;  254.565;  253.103;    0.000; 3.95803; 0.32970
 997.20;  244.855;  243.521;    0.000; 3.66078; 0.30511
 997.75;  246.083;  244.665;    0.000; 3.92248; 0.32710
 998.29;  222.269;  220.865;    0.000; 3.91908; 0.32699
 998.84;  250.122;  248.701;    0.000; 4.00947; 0.33472
 999.38;  249.395;  248.095;    0.000; 3.68896; 0.30813
 999.93;  264.785;  263.363;    0.000; 4.07654; 0.34069
1000.47;  263.731;  262.279;    0.000; 4.18494; 0.34994
1001.02;  260.964;  259.718;    0.000; 3.65623; 0.30589
1001.56;  246.710;  245.454;    0.000; 3.69394; 0.30922
1002.11;  236.855;  235.555;    0.000; 3.88903; 0.32572
1002.65;  229.291;  227.971;    0.000; 3.96288; 0.33209
1003.20;  237.019;  235.605;    0.000; 4.28829; 0.35956
1003.75;  270.769;  269.354;    0.000; 4.34700; 0.36468
1004.29;  239.837;  238.419;    0.000; 4.37159; 0.36694
1004.84;  223.308;  221.846;    0.000; 4.53962; 0.38125
1005.38;  230.692;  229.507;    0.000; 3.74061; 0.31432
1005.93;  245.725;  244.339;    0.000; 4.39037; 0.36911
1006.47;  229.092;  227.623;    0.000; 4.74702; 0.39932
1007.02;  234.376;  233.088;    0.000; 4.19817; 0.35334
1007.56;  250.446;  249.084;    0.000; 4.46374; 0.37589
1008.11;  253.289;  251.921;    0.000; 4.50618; 0.37967
1008.65;  215.577;  214.219;    0.000; 4.54641; 0.38327
1009.19;  241.540;  240.154;    0.000; 4.68131; 0.39485
1009.74;  237.689;  236.393;    0.000; 4.44232; 0.37490
1010.28;  239.078;  237.750;    0.000; 4.58554; 0.38719
1010.83;  250.015;  248.456;    0.000; 5.46858; 0.46200
1011.37;  242.671;  241.107;    0.000; 5.53586; 0.46794
1011.92;  242.108;  240.796;    0.000; 4.67449; 0.39534
1012.46;  232.821;  231.428;    0.000; 5.00466; 0.42349
1013.01;  269.644;  268.250;    0.000; 5.08096; 0.43018
1013.55;  238.165;  237.196;    0.000; 3.51359; 0.29764
1014.09;  238.108;  236.794;    0.000; 4.84514; 0.41066
1014.64;  230.370;  228.933;    0.000; 5.38544; 0.45669
1015.18;  231.014;  229.425;    0.000; 5.95366; 0.50515
1015.73;  223.375;  221.991;    0.000; 5.29419; 0.44944
1016.27;  247.943;  246.516;    0.000; 5.48427; 0.46582
1016.82;  239.283;  238.036;    0.000; 4.78559; 0.40670
1017.36;  230.776;  229.521;    0.000; 4.90111; 0.41674
1017.90;  219.650;  218.413;    0.000; 4.84457; 0.41215
1018.45;  218.256;  216.951;    0.000; 5.16813; 0.43991
1018.99;  215.856;  214.476;    0.000; 5.54551; 0.47229
1019.53;  207.803;  206.492;    0.000; 5.32681; 0.45390
1020.08;  233.453;  232.059;    0.000; 5.72099; 0.48775
1020.62;  233.567;  232.385;    0.000; 4.94382; 0.42172
1021.17;  239.503;  238.298;    0.000; 5.13543; 0.43830
1021.71;  235.436;  234.111;    0.000; 5.75149; 0.49114
1022.25;  245.509;  244.260;    0.000; 5.49755; 0.46970
1022.80;  221.162;  219.930;    0.000; 5.52013; 0.47188
1023.34;  218.388;  216.980;    0.000; 6.37273; 0.54505
1023.88;  232.859;  231.630;    0.000; 5.67536; 0.48567
1024.43;  235.865;  234.429;    0.000; 6.66506; 0.57066
1024.97;  240.038;  238.855;    0.000; 5.57735; 0.47779
1025.51;  219.110;  218.005;    0.000; 5.27433; 0.45207
1026.06;  235.634;  234.434;    0.000; 5.80015; 0.49740
1026.60;  240.513;  239.437;    0.000; 5.27466; 0.45257
1027.14;  251.078;  249.756;    0.000; 6.57139; 0.56413
1027.69;  240.706;  239.334;    0.000; 7.01518; 0.60255
1028.23;  233.950;  232.974;    0.000; 4.99749; 0.42947
1028.77;  215.919;  214.681;    0.000; 6.35573; 0.54648
1029.31;  229.639;  228.422;    0.000; 6.39181; 0.54988
1029.86;  223.252;  222.044;    0.000; 6.38000; 0.54915
1030.40;  269.982;  268.812;    0.000; 6.30759; 0.54320
1030.94;  237.116;  235.862;    0.000; 6.84590; 0.58987
1031.48;  244.898;  243.569;    0.000; 7.29737; 0.62910
1032.03;  236.238;  234.882;    0.000; 7.59301; 0.65494
1032.57;  237.729;  236.390;    0.000; 7.54801; 0.65140
1033.11;  232.532;  231.142;    0.000; 7.94903; 0.68637
1033.65;  222.716;  221.487;    0.000; 7.19709; 0.62177
1034.20;  240.564;  239.495;    0.000; 6.28364; 0.54314
1034.74;  239.524;  238.256;    0.000; 7.58424; 0.65590
1035.28;  238.104;  237.074;    0.000; 6.29658; 0.54483
1035.82;  216.889;  215.342;    0.000; 9.47356; 0.82015
1036.37;  228.486;  227.199;    0.000; 8.03472; 0.69595
1036.91;  249.406;  248.297;    0.000; 6.99995; 0.60664
1037.45;  243.959;  242.864;    0.000; 7.07798; 0.61372
1037.99;  234.305;  233.231;    0.000; 7.00029; 0.60730
1038.53;  234.713;  233.646;    0.000; 7.05953; 0.61276
1039.08;  223.802;  222.437;    0.000; 9.14912; 0.79455
1039.62;  223.469;  222.405;    0.000; 7.26202; 0.63099
1040.16;  228.520;  227.365;    0.000; 7.88114; 0.68515
1040.70;  233.268;  232.529;    0.000; 5.21958; 0.45400
1041.24;  247.976;  246.647;    0.000; 9.57522; 0.83329
1041.79;  223.550;  222.413;    0.000; 8.16505; 0.71094
1042.33;  231.783;  230.533;    0.000; 9.14975; 0.79709
1042.87;  222.300;  221.189;    0.000; 8.26235; 0.72016
1043.41;  228.669;  227.119;    0.000;11.82074; 1.03085
1043.95;  242.320;  241.175;    0.000; 8.76629; 0.76487
1044.49;  208.102;  207.021;    0.000; 8.43245; 0.73613
1045.04;  241.885;  240.574;    0.000;10.36094; 0.90495
1045.58;  234.071;  232.682;    0.000;11.11637; 0.97143
1046.12;  259.213;  258.113;    0.000; 8.88155; 0.77654
1046.66;  243.039;  241.863;    0.000; 9.70594; 0.84906
1047.20;  224.104;  222.781;    0.000;11.05070; 0.96719
1047.74;  258.773;  257.426;    0.000;11.40516; 0.99873
1048.28;  239.345;  238.184;    0.000; 9.90195; 0.86755
1048.82;  254.418;  253.439;    0.000; 8.58998; 0.75299
1049.36;  257.528;  256.342;    0.000;10.47269; 0.91850
1049.91;  245.704;  244.476;    0.000;11.01824; 0.96684
1050.45;  238.322;  237.102;    0.000;11.18865; 0.98230
1050.99;  260.198;  259.133;    0.000; 9.89592; 0.86926
1051.53;  265.159;  264.123;    0.000; 9.79663; 0.86098
1052.07;  238.015;  236.742;    0.000;12.13253; 1.06682
1052.61;  238.336;  237.195;    0.000;11.09057; 0.97570
1053.15;  247.994;  246.809;    0.000;11.61530; 1.02239
1053.69;  243.576;  242.521;    0.000;10.45490; 0.92072
1054.23;  247.661;  246.306;    0.000;13.86695; 1.22183
1054.77;  262.033;  260.820;    0.000;12.58346; 1.10931
1055.31;  248.505;  247.420;    0.000;11.40966; 1.00635
1055.85;  238.645;  237.411;    0.000;13.07000; 1.15338
1056.39;  240.170;  238.742;    0.000;15.39310; 1.35908
1056.93;  245.452;  244.237;    0.000;13.39531; 1.18330
1057.47;  256.548;  255.486;    0.000;11.69656; 1.03377
1058.01;  252.554;  251.330;    0.000;13.84542; 1.22431
1058.55;  247.507;  246.327;    0.000;13.73474; 1.21514
1059.09;  251.020;  249.911;    0.000;13.09978; 1.15956
1059.63;  261.153;  260.150;    0.000;12.07001; 1.06895
1060.17;  273.672;  272.195;    0.000;17.89444; 1.58558
1060.71;  237.170;  235.951;    0.000;14.86692; 1.31799
1061.25;  252.086;  250.815;    0.000;15.77781; 1.39946
1061.79;  249.825;  248.704;    0.000;14.31935; 1.27074
1062.33;  243.610;  242.316;    0.000;16.79001; 1.49075
1062.87;  275.391;  274.059;    0.000;17.48357; 1.55312
1063.41;  251.284;  249.955;    0.000;18.08389; 1.60727
1063.95;  260.532;  259.520;    0.000;13.75689; 1.22331
1064.49;  241.925;  240.397;    0.000;21.01648; 1.86981
1065.03;  298.439;  297.398;    0.000;14.51319; 1.29187
1065.57;  274.111;  272.900;    0.000;17.52892; 1.56110
1066.11;  252.783;  251.756;    0.000;15.19447; 1.35389
1066.65;  249.514;  248.196;    0.000;19.39232; 1.72880
1067.19;  264.156;  263.038;    0.000;16.71925; 1.49126
1067.73;  275.521;  274.394;    0.000;17.12534; 1.52825
1068.27;  242.943;  241.876;    0.000;16.35261; 1.46003
1068.81;  248.522;  247.346;    0.000;18.48778; 1.65150
1069.35;  273.799;  272.431;    0.000;21.31018; 1.90458
1069.89;  241.665;  240.530;    0.000;17.88580; 1.59934
1070.43;  265.153;  264.145;    0.000;16.50226; 1.47636
1070.96;  264.263;  263.129;    0.000;18.50172; 1.65608
1071.50;  261.288;  260.330;    0.000;15.83053; 1.41770
1072.04;  255.884;  254.800;    0.000;17.81925; 1.59660
1072.58;  262.919;  261.956;    0.000;16.24144; 1.45596
1073.12;  272.506;  271.560;    0.000;16.46227; 1.47649
1073.66;  244.977;  243.755;    0.000;21.25164; 1.90701
1074.20;  244.665;  243.611;    0.000;18.38863; 1.65092
1074.74;  260.241;  258.954;    0.000;23.02447; 2.06817
1075.27;  249.102;  247.841;    0.000;22.37424; 2.01077
1075.81;  251.682;  250.347;    0.000;24.32220; 2.18692
1076.35;  256.673;  255.429;    0.000;23.12027; 2.07989
1076.89;  263.232;  262.007;    0.000;23.40502; 2.10656
1077.43;  275.631;  274.395;    0.000;23.81969; 2.14496
1077.97;  264.675;  263.488;    0.000;23.28668; 2.09801
1078.50;  259.137;  257.934;    0.000;22.75630; 2.05125
1079.04;  250.428;  249.384;    0.000;20.66370; 1.86355
1079.58;  257.387;  256.712;    0.000;13.78882; 1.24416
1080.12;  252.252;  251.226;    0.000;21.16238; 1.91043
1080.66;  266.200;  265.136;    0.000;22.44727; 2.02743
1081.20;  236.406;  235.302;    0.000;23.25644; 2.10156
1081.73;  240.725;  239.493;    0.000;25.88451; 2.34021
1082.27;  260.465;  259.314;    0.000;24.37771; 2.20507
1082.81;  264.018;  262.319;    0.000;36.51214; 3.30433
1083.35;  254.873;  253.654;    0.000;27.38380; 2.47945
1083.88;  255.309;  254.146;    0.000;26.23329; 2.37646
1084.42;  269.143;  267.920;    0.000;27.45472; 2.48834
1084.96;  248.958;  247.874;    0.000;24.39857; 2.21244
1085.50;  257.827;  256.720;    0.000;25.82454; 2.34291
1086.04;  251.683;  250.605;    0.000;25.39672; 2.30524
1086.57;  282.246;  280.958;    0.000;30.41728; 2.76231
1087.11;  255.663;  254.575;    0.000;25.97117; 2.35971
1087.65;  247.941;  246.885;    0.000;25.70491; 2.33667
1088.19;  269.824;  268.619;    0.000;29.73113; 2.70401
1088.72;  255.924;  254.787;    0.000;29.01820; 2.64047
1089.26;  249.288;  248.229;    0.000;27.33365; 2.48842
1089.80;  241.214;  240.327;    0.000;23.17038; 2.11044
1090.33;  276.416;  275.371;    0.000;26.59120; 2.42321
1090.87;  236.969;  235.803;    0.000;30.73159; 2.80190
1091.41;  239.630;  238.567;    0.000;29.43800; 2.68528
1091.95;  259.288;  258.060;    0.000;32.82043; 2.99529
1092.48;  268.625;  267.493;    0.000;31.10108; 2.83977
1093.02;  241.895;  240.813;    0.000;30.26544; 2.76483
1093.56;  260.950;  259.610;    0.000;37.80552; 3.45533
1094.09;  237.906;  236.727;    0.000;33.70329; 3.08191
1094.63;  237.270;  236.119;    0.000;32.89888; 3.00983
1095.17;  239.187;  237.911;    0.000;38.00760; 3.47892
1095.70;  258.950;  257.903;    0.000;31.37896; 2.87359
1096.24;  244.291;  243.193;    0.000;33.30099; 3.05110
1096.78;  240.661;  239.317;    0.000;41.28381; 3.78435
1097.31;  243.852;  242.743;    0.000;35.23324; 3.23130
1097.85;  249.517;  248.296;    0.000;38.03812; 3.49024
1098.39;  234.789;  233.722;    0.000;34.34575; 3.15298
1098.92;  246.426;  245.302;    0.000;36.52334; 3.35452
1099.46;  257.530;  256.478;    0.000;34.82561; 3.20016
1099.99;  247.041;  245.746;    0.000;42.16801; 3.87675

