
Integration time [ms]:   0.200
Averaging Nr. [scans]: 65000
Smoothing Nr. [pixels]: 0
Data measured with spectrometer [name]: 7213323SP
Wave   ;Sample   ;Dark     ;Reference;Absolute Irradiance  ;Photon Counts
[nm]   ;[counts] ;[counts] ;[counts] ;[µWatt/cm²/nm]       ;[µMol/s/m²/nm]

 175.65;  189.206;  189.595;    0.000; 0.00000; 0.00000
 176.25;  207.993;  208.219;    0.000; 0.00000; 0.00000
 176.85;  205.102;  205.519;    0.000; 0.00000; 0.00000
 177.45;  205.543;  205.651;    0.000; 0.00000; 0.00000
 178.05;  198.537;  199.022;    0.000; 0.00000; 0.00000
 178.65;  196.750;  197.236;    0.000; 0.00000; 0.00000
 179.25;  189.666;  189.935;    0.000; 0.00000; 0.00000
 179.85;  200.036;  200.485;    0.000; 0.00000; 0.00000
 180.45;  189.101;  189.611;    0.000; 0.00000; 0.00000
 181.05;  231.276;  231.744;    0.000; 0.00000; 0.00000
 181.65;  194.891;  195.302;    0.000; 0.00000; 0.00000
 182.25;  213.558;  214.248;    0.000; 0.00000; 0.00000
 182.86;  211.911;  212.413;    0.000; 0.00000; 0.00000
 183.46;  207.309;  207.677;    0.000; 0.00000; 0.00000
 184.06;  190.081;  190.606;    0.000; 0.00000; 0.00000
 184.66;  178.625;  179.019;    0.000; 0.00000; 0.00000
 185.26;  221.016;  221.525;    0.000; 0.00000; 0.00000
 185.86;  201.006;  201.445;    0.000; 0.00000; 0.00000
 186.46;  221.082;  221.339;    0.000; 0.00000; 0.00000
 187.06;  203.023;  203.311;    0.000; 0.00000; 0.00000
 187.66;  225.475;  225.879;    0.000; 0.00000; 0.00000
 188.26;  230.291;  230.528;    0.000; 0.00000; 0.00000
 188.86;  210.223;  210.363;    0.000; 0.00000; 0.00000
 189.46;  205.439;  205.746;    0.000; 0.00000; 0.00000
 190.06;  197.859;  198.176;    0.000; 0.00000; 0.00000
 190.66;  201.587;  201.820;    0.000; 0.00000; 0.00000
 191.26;  220.710;  220.851;    0.000; 0.00000; 0.00000
 191.86;  215.477;  215.784;    0.000; 0.00000; 0.00000
 192.46;  214.383;  214.592;    0.000; 0.00000; 0.00000
 193.06;  216.226;  216.703;    0.000; 0.00000; 0.00000
 193.66;  203.309;  203.465;    0.000; 0.00000; 0.00000
 194.26;  223.082;  223.221;    0.000; 0.00000; 0.00000
 194.86;  185.320;  185.605;    0.000; 0.00000; 0.00000
 195.46;  191.565;  191.576;    0.000; 0.00000; 0.00000
 196.06;  205.670;  205.589;    0.000; 0.00000; 0.00000
 196.66;  181.668;  181.667;    0.000; 0.00000; 0.00000
 197.26;  182.781;  182.666;    0.000; 0.00000; 0.00000
 197.86;  211.603;  211.351;    0.000; 0.00000; 0.00000
 198.46;  181.226;  180.998;    0.000; 0.00000; 0.00000
 199.06;  208.223;  207.867;    0.000; 0.00000; 0.00000
 199.66;  198.147;  197.771;    0.000; 0.00000; 0.00000
 200.26;  188.935;  188.479;    0.000; 2.62687; 0.04397
 200.85;  203.521;  203.616;    0.000;-0.52340;-0.00879
 201.45;  196.219;  195.742;    0.000; 2.51253; 0.04230
 202.05;  198.170;  197.405;    0.000; 3.82479; 0.06459
 202.65;  193.329;  192.390;    0.000; 4.47761; 0.07584
 203.25;  183.554;  182.497;    0.000; 4.78164; 0.08123
 203.85;  198.414;  197.162;    0.000; 5.42287; 0.09239
 204.45;  230.801;  228.691;    0.000; 8.76585; 0.14979
 205.05;  173.552;  170.381;    0.000;12.53471; 0.21482
 205.65;  185.433;  180.308;    0.000;18.98763; 0.32636
 206.25;  214.186;  205.654;    0.000;30.32251; 0.52270
 206.85;  198.030;  184.508;    0.000;45.63658; 0.78897
 207.45;  212.119;  191.597;    0.000;65.94462; 1.14336
 208.05;  209.313;  180.300;    0.000;89.52038; 1.55660
 208.65;  221.814;  183.712;    0.000;113.84740; 1.98531
 209.25;  222.615;  174.842;    0.000;137.49365; 2.40455
 209.84;  261.225;  205.159;    0.000;159.06412; 2.78974
 210.44;  252.035;  186.872;    0.000;180.23107; 3.17001
 211.04;  294.795;  218.402;    0.000;204.96317; 3.61527
 211.64;  274.890;  187.411;    0.000;224.12336; 3.96445
 212.24;  296.873;  199.395;    0.000;240.41841; 4.26473
 212.84;  300.706;  192.152;    0.000;259.55402; 4.61716
 213.44;  297.402;  179.885;    0.000;268.01246; 4.78105
 214.04;  301.121;  177.341;    0.000;270.84151; 4.84507
 214.64;  318.956;  195.249;    0.000;258.47387; 4.63676
 215.24;  294.121;  176.387;    0.000;238.47447; 4.28993
 215.83;  304.660;  196.582;    0.000;210.10072; 3.79003
 216.43;  259.185;  164.974;    0.000;177.31809; 3.20753
 217.03;  250.428;  172.497;    0.000;142.82220; 2.59068
 217.63;  239.131;  178.153;    0.000;107.39973; 1.95352
 218.23;  228.862;  185.873;    0.000;74.37637; 1.35657
 218.83;  206.081;  176.979;    0.000;48.85703; 0.89356
 219.43;  193.849;  175.751;    0.000;29.56656; 0.54223
 220.03;  179.230;  168.349;    0.000;17.19981; 0.31629
 220.62;  179.815;  172.885;    0.000;10.66222; 0.19661
 221.22;  187.950;  182.470;    0.000; 8.15708; 0.15082
 221.82;  193.995;  189.085;    0.000; 7.16900; 0.13291
 222.42;  168.194;  163.721;    0.000; 6.35509; 0.11814
 223.02;  183.186;  178.828;    0.000; 6.09677; 0.11364
 223.62;  174.791;  170.701;    0.000; 5.64177; 0.10544
 224.22;  193.892;  189.906;    0.000; 5.46775; 0.10246
 224.81;  186.621;  182.891;    0.000; 5.09825; 0.09579
 225.41;  186.432;  182.765;    0.000; 4.96349; 0.09351
 226.01;  171.916;  168.300;    0.000; 4.84568; 0.09153
 226.61;  176.771;  173.103;    0.000; 4.82137; 0.09131
 227.21;  176.477;  172.885;    0.000; 4.57150; 0.08681
 227.81;  202.305;  198.705;    0.000; 4.47419; 0.08519
 228.40;  170.799;  167.319;    0.000; 4.17261; 0.07965
 229.00;  175.657;  172.261;    0.000; 3.94890; 0.07558
 229.60;  179.479;  176.355;    0.000; 3.50314; 0.06722
 230.20;  202.098;  198.764;    0.000; 3.58977; 0.06907
 230.80;  165.371;  162.183;    0.000; 3.33005; 0.06424
 231.39;  159.617;  156.560;    0.000; 3.10219; 0.06000
 231.99;  178.897;  176.348;    0.000; 2.49752; 0.04843
 232.59;  202.698;  200.150;    0.000; 2.44340; 0.04750
 233.19;  174.861;  172.393;    0.000; 2.29474; 0.04472
 233.79;  186.675;  184.603;    0.000; 1.88116; 0.03676
 234.38;  172.072;  170.413;    0.000; 1.48906; 0.02917
 234.98;  178.138;  176.564;    0.000; 1.37679; 0.02704
 235.58;  182.068;  180.595;    0.000; 1.26949; 0.02500
 236.18;  193.535;  192.277;    0.000; 1.06640; 0.02105
 236.78;  178.174;  177.261;    0.000; 0.76210; 0.01508
 237.37;  192.337;  191.543;    0.000; 0.65485; 0.01299
 237.97;  196.709;  195.974;    0.000; 0.59510; 0.01184
 238.57;  196.889;  196.396;    0.000; 0.39543; 0.00788
 239.17;  166.306;  165.625;    0.000; 0.54052; 0.01080
 239.76;  187.232;  186.418;    0.000; 0.64345; 0.01289
 240.36;  178.273;  177.543;    0.000; 0.57986; 0.01165
 240.96;  204.383;  203.676;    0.000; 0.55988; 0.01128
 241.56;  171.443;  170.849;    0.000; 0.47444; 0.00958
 242.15;  178.207;  177.486;    0.000; 0.57667; 0.01167
 242.75;  199.985;  199.199;    0.000; 0.63270; 0.01284
 243.35;  176.482;  175.767;    0.000; 0.58537; 0.01191
 243.95;  185.208;  184.487;    0.000; 0.58725; 0.01197
 244.54;  198.502;  197.869;    0.000; 0.51786; 0.01058
 245.14;  194.542;  194.162;    0.000; 0.30838; 0.00632
 245.74;  211.771;  211.096;    0.000; 0.54244; 0.01114
 246.34;  183.576;  182.873;    0.000; 0.55804; 0.01149
 246.93;  197.257;  196.614;    0.000; 0.49964; 0.01031
 247.53;  153.610;  153.044;    0.000; 0.43034; 0.00890
 248.13;  194.258;  193.701;    0.000; 0.41156; 0.00854
 248.73;  182.408;  181.780;    0.000; 0.45556; 0.00947
 249.32;  185.205;  184.592;    0.000; 0.43298; 0.00902
 249.92;  174.965;  173.857;    0.000; 0.76730; 0.01603
 250.52;  187.765;  186.976;    0.000; 0.53422; 0.01119
 251.11;  191.148;  190.262;    0.000; 0.58890; 0.01236
 251.71;  207.066;  206.403;    0.000; 0.43605; 0.00917
 252.31;  162.351;  161.509;    0.000; 0.54904; 0.01158
 252.91;  187.956;  187.284;    0.000; 0.43168; 0.00912
 253.50;  157.808;  156.878;    0.000; 0.59400; 0.01259
 254.10;  196.836;  195.989;    0.000; 0.53561; 0.01137
 254.70;  168.533;  167.522;    0.000; 0.63231; 0.01346
 255.29;  203.318;  202.590;    0.000; 0.45649; 0.00974
 255.89;  186.227;  185.551;    0.000; 0.42164; 0.00902
 256.49;  170.272;  169.529;    0.000; 0.46175; 0.00990
 257.08;  175.038;  173.679;    0.000; 0.83909; 0.01803
 257.68;  190.237;  189.316;    0.000; 0.56973; 0.01227
 258.28;  186.487;  185.300;    0.000; 0.72675; 0.01569
 258.87;  191.766;  191.684;    0.000; 0.05024; 0.00109
 259.47;  177.433;  176.554;    0.000; 0.53880; 0.01168
 260.07;  183.913;  183.084;    0.000; 0.51242; 0.01114
 260.66;  161.166;  160.193;    0.000; 0.61186; 0.01333
 261.26;  208.062;  207.109;    0.000; 0.60259; 0.01316
 261.86;  201.212;  200.333;    0.000; 0.56330; 0.01233
 262.45;  175.639;  174.782;    0.000; 0.56172; 0.01232
 263.05;  176.046;  175.076;    0.000; 0.64190; 0.01411
 263.65;  176.965;  176.186;    0.000; 0.52045; 0.01147
 264.24;  194.902;  193.965;    0.000; 0.64569; 0.01426
 264.84;  205.483;  204.460;    0.000; 0.71753; 0.01588
 265.44;  180.979;  180.191;    0.000; 0.55917; 0.01241
 266.03;  177.031;  176.144;    0.000; 0.63422; 0.01410
 266.63;  168.123;  167.252;    0.000; 0.62600; 0.01395
 267.23;  183.833;  182.925;    0.000; 0.64942; 0.01450
 267.82;  161.060;  160.218;    0.000; 0.60621; 0.01357
 268.42;  169.799;  168.931;    0.000; 0.61650; 0.01383
 269.01;  171.613;  170.757;    0.000; 0.59961; 0.01348
 269.61;  183.509;  182.605;    0.000; 0.62497; 0.01408
 270.21;  184.744;  183.779;    0.000; 0.65148; 0.01471
 270.80;  201.377;  200.404;    0.000; 0.64242; 0.01454
 271.40;  163.516;  162.444;    0.000; 0.69523; 0.01577
 271.99;  197.175;  196.115;    0.000; 0.67260; 0.01529
 272.59;  156.680;  155.527;    0.000; 0.72274; 0.01647
 273.19;  166.265;  165.050;    0.000; 0.73867; 0.01687
 273.78;  153.530;  152.411;    0.000; 0.66716; 0.01527
 274.38;  169.216;  167.996;    0.000; 0.70845; 0.01625
 274.97;  178.170;  177.104;    0.000; 0.60761; 0.01396
 275.57;  178.914;  177.682;    0.000; 0.68876; 0.01586
 276.17;  151.935;  150.724;    0.000; 0.66656; 0.01539
 276.76;  177.017;  175.740;    0.000; 0.69096; 0.01598
 277.36;  175.199;  173.387;    0.000; 0.96905; 0.02246
 277.95;  179.421;  177.954;    0.000; 0.76471; 0.01776
 278.55;  164.347;  162.702;    0.000; 0.84917; 0.01977
 279.14;  183.766;  182.163;    0.000; 0.82100; 0.01915
 279.74;  180.427;  178.913;    0.000; 0.76420; 0.01787
 280.34;  165.785;  164.316;    0.000; 0.73044; 0.01711
 280.93;  201.019;  199.323;    0.000; 0.83332; 0.01957
 281.53;  158.566;  156.847;    0.000; 0.83488; 0.01964
 282.12;  182.952;  181.212;    0.000; 0.83405; 0.01967
 282.72;  171.567;  169.809;    0.000; 0.83428; 0.01971
 283.31;  180.836;  179.108;    0.000; 0.81252; 0.01924
 283.91;  161.422;  159.661;    0.000; 0.82364; 0.01954
 284.50;  189.862;  188.071;    0.000; 0.83391; 0.01983
 285.10;  197.607;  196.213;    0.000; 0.64593; 0.01539
 285.69;  160.991;  159.198;    0.000; 0.83731; 0.01999
 286.29;  182.934;  181.033;    0.000; 0.88610; 0.02120
 286.89;  174.481;  172.595;    0.000; 0.88318; 0.02118
 287.48;  179.649;  178.010;    0.000; 0.78025; 0.01875
 288.08;  193.677;  192.018;    0.000; 0.77821; 0.01874
 288.67;  174.389;  172.735;    0.000; 0.78284; 0.01889
 289.27;  178.083;  176.442;    0.000; 0.78198; 0.01891
 289.86;  174.516;  172.924;    0.000; 0.76135; 0.01844
 290.46;  157.222;  155.577;    0.000; 0.78554; 0.01907
 291.05;  172.705;  171.032;    0.000; 0.79345; 0.01930
 291.65;  169.586;  167.991;    0.000; 0.75359; 0.01837
 292.24;  192.187;  190.705;    0.000; 0.69339; 0.01694
 292.84;  179.146;  177.568;    0.000; 0.72978; 0.01786
 293.43;  180.478;  178.988;    0.000; 0.68825; 0.01688
 294.03;  179.240;  177.683;    0.000; 0.69915; 0.01718
 294.62;  185.490;  183.503;    0.000; 0.88337; 0.02175
 295.22;  168.544;  166.859;    0.000; 0.73519; 0.01814
 295.81;  183.688;  182.095;    0.000; 0.68285; 0.01688
 296.41;  170.931;  169.253;    0.000; 0.70757; 0.01753
 297.00;  185.717;  184.132;    0.000; 0.65539; 0.01627
 297.60;  173.922;  172.201;    0.000; 0.70215; 0.01746
 298.19;  181.001;  179.318;    0.000; 0.67203; 0.01675
 298.78;  177.397;  175.669;    0.000; 0.68057; 0.01700
 299.38;  163.819;  162.043;    0.000; 0.68910; 0.01724
 299.97;  189.558;  187.585;    0.000; 0.75737; 0.01899
 300.57;  177.223;  175.090;    0.000; 0.80657; 0.02026
 301.16;  138.067;  136.226;    0.000; 0.68758; 0.01731
 301.76;  174.048;  172.184;    0.000; 0.68179; 0.01720
 302.35;  176.821;  174.837;    0.000; 0.71573; 0.01809
 302.95;  193.980;  191.859;    0.000; 0.73570; 0.01863
 303.54;  153.127;  150.996;    0.000; 0.72242; 0.01833
 304.14;  157.502;  155.282;    0.000; 0.73069; 0.01857
 304.73;  191.199;  188.924;    0.000; 0.73229; 0.01865
 305.32;  180.778;  178.417;    0.000; 0.74425; 0.01899
 305.92;  163.076;  160.491;    0.000; 0.80558; 0.02060
 306.51;  157.807;  155.298;    0.000; 0.76792; 0.01967
 307.11;  175.878;  173.401;    0.000; 0.74523; 0.01913
 307.70;  153.896;  151.196;    0.000; 0.79874; 0.02054
 308.29;  158.384;  155.589;    0.000; 0.81464; 0.02099
 308.89;  164.216;  161.640;    0.000; 0.74466; 0.01922
 309.48;  125.352;  122.581;    0.000; 0.79246; 0.02050
 310.08;  166.451;  163.711;    0.000; 0.77061; 0.01997
 310.67;  168.904;  165.983;    0.000; 0.82057; 0.02131
 311.27;  153.782;  150.790;    0.000; 0.83443; 0.02171
 311.86;  158.708;  155.736;    0.000; 0.81917; 0.02135
 312.45;  163.790;  160.831;    0.000; 0.80944; 0.02114
 313.05;  176.242;  173.193;    0.000; 0.82701; 0.02164
 313.64;  169.065;  166.234;    0.000; 0.76964; 0.02018
 314.23;  157.647;  154.749;    0.000; 0.77521; 0.02036
 314.83;  178.788;  176.025;    0.000; 0.73573; 0.01936
 315.42;  150.456;  148.203;    0.000; 0.60275; 0.01589
 316.02;  156.414;  153.546;    0.000; 0.77071; 0.02036
 316.61;  151.617;  148.743;    0.000; 0.76533; 0.02025
 317.20;  164.565;  161.511;    0.000; 0.81078; 0.02149
 317.80;  159.027;  156.055;    0.000; 0.79434; 0.02110
 318.39;  164.067;  161.285;    0.000; 0.74769; 0.01990
 318.98;  194.960;  192.055;    0.000; 0.78636; 0.02096
 319.58;  168.766;  165.773;    0.000; 0.81049; 0.02165
 320.17;  166.274;  163.367;    0.000; 0.79963; 0.02140
 320.76;  166.825;  163.850;    0.000; 0.82465; 0.02211
 321.36;  171.684;  168.764;    0.000; 0.80672; 0.02167
 321.95;  167.023;  164.149;    0.000; 0.80782; 0.02174
 322.55;  184.998;  182.144;    0.000; 0.80395; 0.02167
 323.14;  154.075;  151.119;    0.000; 0.84170; 0.02273
 323.73;  152.546;  149.601;    0.000; 0.85041; 0.02301
 324.33;  174.807;  171.960;    0.000; 0.83615; 0.02267
 324.92;  168.168;  166.072;    0.000; 0.62594; 0.01700
 325.51;  165.444;  162.394;    0.000; 0.91957; 0.02502
 326.10;  163.089;  160.501;    0.000; 0.78677; 0.02144
 326.70;  172.232;  169.419;    0.000; 0.86551; 0.02363
 327.29;  165.516;  162.680;    0.000; 0.88280; 0.02415
 327.88;  162.244;  159.539;    0.000; 0.84288; 0.02310
 328.48;  171.203;  168.453;    0.000; 0.85966; 0.02360
 329.07;  178.678;  175.880;    0.000; 0.87395; 0.02404
 329.66;  171.946;  168.988;    0.000; 0.94446; 0.02602
 330.26;  174.979;  172.020;    0.000; 0.93726; 0.02587
 330.85;  179.648;  176.710;    0.000; 0.92763; 0.02565
 331.44;  173.793;  170.713;    0.000; 0.97601; 0.02704
 332.04;  173.967;  171.114;    0.000; 0.89344; 0.02479
 332.63;  164.133;  160.955;    0.000; 0.99689; 0.02771
 333.22;  177.045;  173.864;    0.000; 0.98597; 0.02746
 333.81;  180.533;  177.094;    0.000; 1.05000; 0.02929
 334.41;  182.687;  179.510;    0.000; 0.95987; 0.02683
 335.00;  191.657;  188.219;    0.000; 1.02205; 0.02862
 335.59;  174.619;  171.304;    0.000; 0.97578; 0.02737
 336.18;  184.955;  181.518;    0.000; 1.00280; 0.02818
 336.78;  164.697;  161.339;    0.000; 0.96142; 0.02706
 337.37;  169.035;  165.579;    0.000; 0.96294; 0.02715
 337.96;  226.635;  223.220;    0.000; 0.93657; 0.02645
 338.55;  196.615;  192.949;    0.000; 0.98882; 0.02798
 339.15;  183.968;  180.318;    0.000; 0.97234; 0.02756
 339.74;  172.028;  168.403;    0.000; 0.95919; 0.02724
 340.33;  170.028;  166.356;    0.000; 0.97647; 0.02777
 340.92;  178.542;  174.826;    0.000; 1.00232; 0.02856
 341.52;  175.818;  172.194;    0.000; 0.96314; 0.02749
 342.11;  170.895;  167.198;    0.000; 0.96962; 0.02772
 342.70;  160.660;  156.711;    0.000; 1.03220; 0.02956
 343.29;  176.837;  172.881;    0.000; 1.03397; 0.02967
 343.89;  167.156;  163.454;    0.000; 0.96795; 0.02782
 344.48;  179.283;  175.228;    0.000; 1.04130; 0.02998
 345.07;  153.440;  149.551;    0.000; 0.99780; 0.02878
 345.66;  182.055;  178.086;    0.000; 1.02659; 0.02966
 346.25;  167.429;  163.524;    0.000; 0.99992; 0.02894
 346.85;  183.396;  179.129;    0.000; 1.08965; 0.03159
 347.44;  160.191;  155.946;    0.000; 1.08474; 0.03150
 348.03;  170.107;  165.929;    0.000; 1.06336; 0.03093
 348.62;  191.447;  187.314;    0.000; 1.05792; 0.03083
 349.21;  161.670;  157.581;    0.000; 1.05566; 0.03081
 349.81;  176.915;  172.663;    0.000; 1.09722; 0.03208
 350.40;  162.512;  158.257;    0.000; 1.10132; 0.03225
 350.99;  158.519;  154.318;    0.000; 1.10298; 0.03236
 351.58;  167.911;  163.735;    0.000; 1.10635; 0.03251
 352.17;  145.000;  140.543;    0.000; 1.18346; 0.03483
 352.77;  171.498;  167.188;    0.000; 1.15976; 0.03419
 353.36;  178.141;  173.832;    0.000; 1.16269; 0.03434
 353.95;  178.568;  174.282;    0.000; 1.17858; 0.03487
 354.54;  157.555;  153.493;    0.000; 1.13177; 0.03354
 355.13;  175.438;  171.204;    0.000; 1.19648; 0.03551
 355.72;  176.864;  172.491;    0.000; 1.25832; 0.03741
 356.32;  167.266;  163.089;    0.000; 1.23342; 0.03673
 356.91;  187.999;  183.762;    0.000; 1.27018; 0.03789
 357.50;  168.935;  164.525;    0.000; 1.33849; 0.03999
 358.09;  163.828;  159.564;    0.000; 1.34255; 0.04018
 358.68;  165.152;  161.224;    0.000; 1.25712; 0.03769
 359.27;  181.344;  177.359;    0.000; 1.32060; 0.03965
 359.86;  184.560;  180.384;    0.000; 1.43180; 0.04306
 360.46;  157.047;  153.055;    0.000; 1.42484; 0.04293
 361.05;  171.705;  167.835;    0.000; 1.40154; 0.04229
 361.64;  167.000;  163.129;    0.000; 1.46211; 0.04419
 362.23;  172.051;  168.033;    0.000; 1.56784; 0.04747
 362.82;  163.755;  160.086;    0.000; 1.45970; 0.04426
 363.41;  168.105;  164.277;    0.000; 1.58662; 0.04819
 364.00;  177.186;  173.345;    0.000; 1.65539; 0.05036
 364.59;  182.001;  178.409;    0.000; 1.58754; 0.04838
 365.19;  160.195;  156.715;    0.000; 1.60363; 0.04895
 365.78;  182.077;  178.476;    0.000; 1.70334; 0.05207
 366.37;  168.379;  164.824;    0.000; 1.72550; 0.05284
 366.96;  167.226;  163.519;    0.000; 1.83320; 0.05622
 367.55;  179.854;  176.568;    0.000; 1.62063; 0.04978
 368.14;  177.659;  174.223;    0.000; 1.69849; 0.05226
 368.73;  184.928;  181.638;    0.000; 1.63252; 0.05031
 369.32;  189.602;  186.327;    0.000; 1.65432; 0.05106
 369.91;  179.929;  176.587;    0.000; 1.68265; 0.05202
 370.50;  186.772;  183.564;    0.000; 1.60972; 0.04985
 371.09;  173.504;  170.003;    0.000; 1.75739; 0.05451
 371.69;  170.798;  167.500;    0.000; 1.65228; 0.05133
 372.28;  164.871;  161.641;    0.000; 1.61600; 0.05028
 372.87;  196.154;  192.704;    0.000; 1.71517; 0.05345
 373.46;  165.277;  161.833;    0.000; 1.69393; 0.05287
 374.05;  186.144;  182.620;    0.000; 1.73907; 0.05437
 374.64;  185.624;  182.165;    0.000; 1.68557; 0.05278
 375.23;  177.080;  173.416;    0.000; 1.77122; 0.05555
 375.82;  197.039;  193.542;    0.000; 1.66669; 0.05235
 376.41;  191.300;  187.796;    0.000; 1.66715; 0.05245
 377.00;  190.638;  186.967;    0.000; 1.72670; 0.05441
 377.59;  180.299;  176.681;    0.000; 1.63959; 0.05174
 378.18;  185.362;  181.491;    0.000; 1.74604; 0.05519
 378.77;  180.411;  176.634;    0.000; 1.68769; 0.05343
 379.36;  172.042;  168.242;    0.000; 1.67866; 0.05322
 379.95;  191.831;  187.878;    0.000; 1.73139; 0.05498
 380.54;  184.093;  180.152;    0.000; 1.68163; 0.05348
 381.13;  198.642;  194.634;    0.000; 1.68898; 0.05380
 381.72;  166.400;  162.276;    0.000; 1.69883; 0.05420
 382.31;  196.182;  191.947;    0.000; 1.72607; 0.05515
 382.90;  183.672;  179.342;    0.000; 1.73847; 0.05564
 383.49;  229.668;  225.169;    0.000; 1.78936; 0.05735
 384.08;  171.894;  167.437;    0.000; 1.73833; 0.05580
 384.67;  195.552;  190.951;    0.000; 1.77276; 0.05699
 385.26;  192.621;  187.752;    0.000; 1.82956; 0.05891
 385.85;  175.906;  171.244;    0.000; 1.73077; 0.05582
 386.44;  189.683;  185.002;    0.000; 1.73490; 0.05603
 387.03;  200.132;  195.388;    0.000; 1.72508; 0.05580
 387.62;  164.138;  159.070;    0.000; 1.80934; 0.05862
 388.21;  197.140;  192.157;    0.000; 1.76498; 0.05727
 388.80;  179.178;  173.992;    0.000; 1.80960; 0.05880
 389.39;  183.549;  178.259;    0.000; 1.82212; 0.05930
 389.98;  181.994;  176.718;    0.000; 1.78597; 0.05821
 390.57;  182.626;  177.016;    0.000; 1.88685; 0.06159
 391.16;  188.643;  182.849;    0.000; 1.92110; 0.06281
 391.75;  196.949;  191.229;    0.000; 1.88412; 0.06169
 392.34;  195.721;  189.736;    0.000; 1.93911; 0.06359
 392.93;  192.468;  186.696;    0.000; 1.84671; 0.06065
 393.52;  168.776;  162.690;    0.000; 1.93471; 0.06363
 394.11;  172.852;  166.752;    0.000; 1.92389; 0.06337
 394.70;  212.449;  206.160;    0.000; 1.96627; 0.06486
 395.29;  193.859;  187.355;    0.000; 2.01051; 0.06642
 395.88;  180.931;  174.111;    0.000; 2.12598; 0.07034
 396.47;  196.126;  189.219;    0.000; 2.11443; 0.07006
 397.05;  183.650;  176.682;    0.000; 2.14148; 0.07107
 397.64;  196.953;  189.735;    0.000; 2.20291; 0.07321
 398.23;  184.969;  177.927;    0.000; 2.14476; 0.07139
 398.82;  185.998;  179.014;    0.000; 2.10417; 0.07014
 399.41;  178.814;  171.798;    0.000; 2.11828; 0.07071
 400.00;  175.695;  168.958;    0.000; 2.03953; 0.06818
 400.59;  195.864;  188.961;    0.000; 2.08403; 0.06977
 401.18;  193.277;  186.264;    0.000; 2.12607; 0.07129
 401.77;  182.104;  174.820;    0.000; 2.20091; 0.07390
 402.36;  196.965;  190.230;    0.000; 2.03129; 0.06831
 402.95;  177.895;  171.273;    0.000; 2.00877; 0.06765
 403.53;  195.559;  188.752;    0.000; 2.05943; 0.06946
 404.12;  178.790;  172.165;    0.000; 1.99110; 0.06725
 404.71;  179.404;  172.677;    0.000; 2.03424; 0.06881
 405.30;  159.726;  153.018;    0.000; 2.04540; 0.06929
 405.89;  176.229;  169.415;    0.000; 2.05991; 0.06988
 406.48;  196.031;  189.136;    0.000; 2.09168; 0.07106
 407.07;  170.141;  163.118;    0.000; 2.14564; 0.07300
 407.66;  192.409;  185.559;    0.000; 2.11422; 0.07203
 408.24;  191.647;  184.752;    0.000; 2.11639; 0.07221
 408.83;  193.980;  186.911;    0.000; 2.17986; 0.07448
 409.42;  169.953;  163.057;    0.000; 2.13275; 0.07298
 410.01;  185.597;  178.558;    0.000; 2.18168; 0.07476
 410.60;  194.950;  188.036;    0.000; 2.18827; 0.07510
 411.19;  165.617;  158.665;    0.000; 2.19054; 0.07528
 411.78;  165.315;  158.328;    0.000; 2.23467; 0.07691
 412.36;  171.797;  164.660;    0.000; 2.27054; 0.07825
 412.95;  176.897;  169.878;    0.000; 2.25752; 0.07792
 413.54;  203.447;  196.332;    0.000; 2.28669; 0.07903
 414.13;  193.497;  186.478;    0.000; 2.27822; 0.07885
 414.72;  177.113;  170.254;    0.000; 2.22729; 0.07720
 415.31;  175.859;  169.083;    0.000; 2.22089; 0.07709
 415.89;  161.851;  155.102;    0.000; 2.22083; 0.07720
 416.48;  178.581;  171.854;    0.000; 2.23614; 0.07784
 417.07;  168.142;  161.592;    0.000; 2.18780; 0.07626
 417.66;  197.801;  190.990;    0.000; 2.28689; 0.07983
 418.25;  183.727;  177.022;    0.000; 2.28376; 0.07983
 418.83;  178.805;  171.847;    0.000; 2.36781; 0.08289
 419.42;  185.522;  178.457;    0.000; 2.41505; 0.08466
 420.01;  187.336;  180.325;    0.000; 2.41183; 0.08466
 420.60;  187.270;  180.209;    0.000; 2.45261; 0.08622
 421.19;  207.934;  201.090;    0.000; 2.39874; 0.08444
 421.77;  161.313;  154.867;    0.000; 2.28847; 0.08067
 422.36;  192.469;  186.210;    0.000; 2.21393; 0.07815
 422.95;  182.487;  176.185;    0.000; 2.26124; 0.07993
 423.54;  202.022;  195.914;    0.000; 2.19734; 0.07778
 424.12;  190.693;  184.909;    0.000; 2.09043; 0.07410
 424.71;  188.912;  183.086;    0.000; 2.12515; 0.07544
 425.30;  193.622;  187.673;    0.000; 2.17652; 0.07737
 425.89;  196.370;  190.483;    0.000; 2.15605; 0.07674
 426.48;  188.369;  182.717;    0.000; 2.08069; 0.07416
 427.06;  181.159;  175.619;    0.000; 2.05526; 0.07336
 427.65;  197.035;  191.402;    0.000; 2.07872; 0.07430
 428.24;  174.983;  169.393;    0.000; 2.07924; 0.07442
 428.83;  186.437;  180.839;    0.000; 2.06764; 0.07411
 429.41;  194.686;  189.262;    0.000; 2.02116; 0.07254
 430.00;  180.898;  175.489;    0.000; 2.01732; 0.07250
 430.59;  215.337;  209.670;    0.000; 2.09278; 0.07531
 431.17;  199.029;  193.526;    0.000; 2.05116; 0.07392
 431.76;  199.010;  193.448;    0.000; 2.07247; 0.07479
 432.35;  209.271;  203.769;    0.000; 2.04839; 0.07402
 432.94;  198.805;  193.275;    0.000; 2.05274; 0.07428
 433.52;  202.028;  196.514;    0.000; 2.03177; 0.07362
 434.11;  207.280;  201.798;    0.000; 2.01538; 0.07312
 434.70;  197.165;  191.893;    0.000; 1.94129; 0.07053
 435.29;  213.990;  208.667;    0.000; 1.95917; 0.07128
 435.87;  206.535;  201.053;    0.000; 2.00370; 0.07299
 436.46;  211.867;  206.310;    0.000; 2.02545; 0.07389
 437.05;  184.004;  178.525;    0.000; 1.99470; 0.07286
 437.63;  202.679;  197.285;    0.000; 1.95459; 0.07149
 438.22;  202.663;  197.370;    0.000; 1.90429; 0.06975
 438.81;  213.575;  208.007;    0.000; 2.00174; 0.07341
 439.39;  192.872;  187.392;    0.000; 1.96462; 0.07215
 439.98;  206.633;  201.074;    0.000; 1.96209; 0.07215
 440.57;  202.668;  197.188;    0.000; 1.94164; 0.07149
 441.15;  195.955;  190.883;    0.000; 1.77067; 0.06529
 441.74;  202.397;  197.084;    0.000; 1.85960; 0.06866
 442.33;  209.509;  204.188;    0.000; 1.84340; 0.06815
 442.91;  203.492;  198.206;    0.000; 1.82229; 0.06746
 443.50;  193.219;  187.905;    0.000; 1.81426; 0.06725
 444.09;  187.516;  182.277;    0.000; 1.76691; 0.06558
 444.67;  221.742;  216.397;    0.000; 1.76925; 0.06575
 445.26;  202.338;  197.068;    0.000; 1.74914; 0.06509
 445.85;  217.974;  212.723;    0.000; 1.73230; 0.06455
 446.43;  200.853;  195.573;    0.000; 1.72622; 0.06441
 447.02;  201.477;  196.099;    0.000; 1.75128; 0.06543
 447.61;  179.723;  174.287;    0.000; 1.74225; 0.06518
 448.19;  206.221;  200.843;    0.000; 1.70652; 0.06392
 448.78;  196.944;  191.564;    0.000; 1.68668; 0.06326
 449.36;  203.783;  197.943;    0.000; 1.82269; 0.06845
 449.95;  192.411;  185.660;    0.000; 2.08641; 0.07846
 450.54;  193.504;  185.930;    0.000; 2.31307; 0.08710
 451.12;  214.567;  207.789;    0.000; 2.05581; 0.07751
 451.71;  178.686;  172.483;    0.000; 1.86366; 0.07036
 452.30;  206.933;  200.422;    0.000; 1.92773; 0.07287
 452.88;  196.301;  189.377;    0.000; 2.04914; 0.07756
 453.47;  180.638;  174.037;    0.000; 1.92886; 0.07310
 454.05;  188.825;  182.639;    0.000; 1.79524; 0.06813
 454.64;  196.890;  190.955;    0.000; 1.71351; 0.06511
 455.22;  214.148;  207.873;    0.000; 1.78286; 0.06783
 455.81;  180.357;  174.078;    0.000; 1.78735; 0.06809
 456.40;  214.559;  208.208;    0.000; 1.78558; 0.06811
 456.98;  188.047;  181.675;    0.000; 1.78241; 0.06808
 457.57;  208.566;  201.628;    0.000; 1.91964; 0.07341
 458.15;  212.786;  205.681;    0.000; 1.95953; 0.07503
 458.74;  198.556;  191.369;    0.000; 1.98452; 0.07609
 459.33;  207.228;  200.237;    0.000; 1.91252; 0.07342
 459.91;  206.927;  200.281;    0.000; 1.80907; 0.06954
 460.50;  205.380;  199.041;    0.000; 1.71966; 0.06619
 461.08;  197.579;  190.525;    0.000; 1.90176; 0.07329
 461.67;  201.023;  193.759;    0.000; 1.94703; 0.07513
 462.25;  203.943;  196.175;    0.000; 2.08932; 0.08072
 462.84;  176.187;  167.634;    0.000; 2.27686; 0.08808
 463.42;  191.004;  182.133;    0.000; 2.36630; 0.09165
 464.01;  193.248;  185.049;    0.000; 2.17424; 0.08432
 464.59;  205.858;  198.267;    0.000; 2.00999; 0.07805
 465.18;  192.896;  185.391;    0.000; 1.98832; 0.07730
 465.76;  196.877;  189.495;    0.000; 1.95280; 0.07602
 466.35;  198.605;  191.124;    0.000; 1.96611; 0.07663
 466.94;  211.409;  202.788;    0.000; 2.25751; 0.08810
 467.52;  219.359;  208.298;    0.000; 2.88972; 0.11291
 468.11;  190.351;  178.644;    0.000; 3.07335; 0.12024
 468.69;  180.882;  170.065;    0.000; 2.81941; 0.11044
 469.28;  171.590;  161.980;    0.000; 2.49605; 0.09790
 469.86;  206.627;  197.649;    0.000; 2.33516; 0.09170
 470.45;  198.369;  190.005;    0.000; 2.17525; 0.08553
 471.03;  180.424;  172.758;    0.000; 1.99216; 0.07843
 471.62;  189.340;  181.955;    0.000; 1.91167; 0.07535
 472.20;  192.705;  185.629;    0.000; 1.83529; 0.07243
 472.79;  226.926;  219.440;    0.000; 1.93621; 0.07651
 473.37;  195.785;  186.941;    0.000; 2.30375; 0.09114
 473.95;  193.354;  184.625;    0.000; 2.27445; 0.09010
 474.54;  155.267;  147.639;    0.000; 1.99143; 0.07898
 475.12;  216.506;  209.922;    0.000; 1.71826; 0.06823
 475.71;  198.687;  192.350;    0.000; 1.66581; 0.06623
 476.29;  202.243;  195.624;    0.000; 1.74710; 0.06955
 476.88;  178.082;  171.925;    0.000; 1.62124; 0.06462
 477.46;  177.770;  171.622;    0.000; 1.62285; 0.06476
 478.05;  184.767;  178.826;    0.000; 1.57901; 0.06309
 478.63;  191.157;  185.174;    0.000; 1.58340; 0.06334
 479.22;  169.431;  163.348;    0.000; 1.61556; 0.06471
 479.80;  195.580;  189.629;    0.000; 1.58853; 0.06370
 480.38;  190.628;  184.186;    0.000; 1.72694; 0.06934
 480.97;  176.537;  169.266;    0.000; 1.94803; 0.07831
 481.55;  186.023;  178.409;    0.000; 2.05177; 0.08258
 482.14;  206.437;  199.299;    0.000; 1.92280; 0.07748
 482.72;  182.821;  175.893;    0.000; 1.87535; 0.07566
 483.31;  180.837;  173.811;    0.000; 1.90976; 0.07714
 483.89;  186.431;  179.477;    0.000; 1.90166; 0.07691
 484.47;  183.033;  176.579;    0.000; 1.76495; 0.07147
 485.06;  173.727;  167.404;    0.000; 1.74331; 0.07067
 485.64;  199.219;  193.126;    0.000; 1.68964; 0.06858
 486.23;  202.839;  196.990;    0.000; 1.63295; 0.06636
 486.81;  194.678;  188.645;    0.000; 1.68389; 0.06851
 487.39;  165.974;  160.382;    0.000; 1.56790; 0.06387
 487.98;  176.396;  170.872;    0.000; 1.56169; 0.06369
 488.56;  205.644;  200.167;    0.000; 1.55159; 0.06336
 489.15;  174.966;  169.457;    0.000; 1.57817; 0.06452
 489.73;  180.673;  175.228;    0.000; 1.56532; 0.06407
 490.31;  179.063;  173.678;    0.000; 1.55046; 0.06354
 490.90;  180.068;  174.441;    0.000; 1.63953; 0.06727
 491.48;  181.740;  175.840;    0.000; 1.73302; 0.07119
 492.06;  198.763;  191.998;    0.000; 1.98127; 0.08148
 492.65;  165.758;  159.120;    0.000; 1.96615; 0.08096
 493.23;  156.641;  150.227;    0.000; 1.91809; 0.07907
 493.82;  187.098;  181.097;    0.000; 1.79163; 0.07394
 494.40;  156.635;  151.138;    0.000; 1.66051; 0.06861
 494.98;  171.548;  166.305;    0.000; 1.59234; 0.06587
 495.57;  154.984;  149.892;    0.000; 1.55848; 0.06455
 496.15;  154.335;  149.309;    0.000; 1.55183; 0.06435
 496.73;  166.993;  162.274;    0.000; 1.46502; 0.06082
 497.32;  188.505;  183.686;    0.000; 1.49355; 0.06208
 497.90;  187.320;  182.815;    0.000; 1.40613; 0.05851
 498.48;  162.227;  157.627;    0.000; 1.45333; 0.06055
 499.07;  169.565;  165.096;    0.000; 1.41320; 0.05895
 499.65;  185.563;  181.128;    0.000; 1.41254; 0.05899
 500.23;  151.130;  146.773;    0.000; 1.39420; 0.05829
 500.82;  164.201;  160.235;    0.000; 1.27952; 0.05356
 501.40;  167.416;  163.432;    0.000; 1.28886; 0.05401
 501.98;  177.619;  173.204;    0.000; 1.42829; 0.05992
 502.56;  191.675;  187.493;    0.000; 1.36612; 0.05738
 503.15;  192.963;  188.727;    0.000; 1.38517; 0.05825
 503.73;  174.823;  170.840;    0.000; 1.30966; 0.05514
 504.31;  180.135;  176.268;    0.000; 1.27572; 0.05377
 504.90;  187.396;  183.292;    0.000; 1.36267; 0.05750
 505.48;  199.438;  195.429;    0.000; 1.33304; 0.05632
 506.06;  183.105;  179.255;    0.000; 1.28930; 0.05453
 506.64;  169.574;  165.836;    0.000; 1.25370; 0.05309
 507.23;  177.053;  173.127;    0.000; 1.32126; 0.05601
 507.81;  188.087;  184.159;    0.000; 1.32183; 0.05610
 508.39;  177.581;  173.586;    0.000; 1.34706; 0.05724
 508.97;  182.766;  178.925;    0.000; 1.29648; 0.05515
 509.56;  194.079;  190.072;    0.000; 1.35926; 0.05789
 510.14;  159.691;  155.734;    0.000; 1.33644; 0.05698
 510.72;  178.802;  175.021;    0.000; 1.28464; 0.05484
 511.30;  189.495;  185.641;    0.000; 1.30574; 0.05580
 511.89;  186.876;  182.968;    0.000; 1.32832; 0.05683
 512.47;  179.417;  175.428;    0.000; 1.34913; 0.05778
 513.05;  178.213;  174.178;    0.000; 1.37770; 0.05908
 513.63;  179.268;  175.215;    0.000; 1.38379; 0.05940
 514.22;  190.769;  186.519;    0.000; 1.43887; 0.06184
 514.80;  188.263;  184.113;    0.000; 1.40497; 0.06045
 515.38;  179.131;  175.125;    0.000; 1.35667; 0.05844
 515.96;  200.496;  196.164;    0.000; 1.46976; 0.06338
 516.55;  173.038;  168.646;    0.000; 1.49392; 0.06450
 517.13;  184.808;  180.382;    0.000; 1.51595; 0.06552
 517.71;  170.672;  166.299;    0.000; 1.50342; 0.06505
 518.29;  170.684;  166.391;    0.000; 1.47709; 0.06398
 518.87;  182.722;  178.105;    0.000; 1.59638; 0.06923
 519.46;  173.730;  169.097;    0.000; 1.60639; 0.06974
 520.04;  177.616;  172.880;    0.000; 1.62837; 0.07078
 520.62;  168.045;  163.465;    0.000; 1.58646; 0.06903
 521.20;  166.522;  161.735;    0.000; 1.66294; 0.07244
 521.78;  182.144;  177.205;    0.000; 1.70617; 0.07441
 522.36;  177.181;  171.980;    0.000; 1.79954; 0.07857
 522.95;  178.541;  173.339;    0.000; 1.80037; 0.07869
 523.53;  166.546;  161.302;    0.000; 1.81633; 0.07947
 524.11;  179.402;  173.978;    0.000; 1.86216; 0.08157
 524.69;  175.330;  169.833;    0.000; 1.89458; 0.08308
 525.27;  173.631;  167.828;    0.000; 1.99891; 0.08776
 525.85;  186.857;  181.069;    0.000; 1.98699; 0.08733
 526.44;  186.765;  180.896;    0.000; 2.00571; 0.08825
 527.02;  195.152;  189.198;    0.000; 2.02790; 0.08932
 527.60;  185.957;  180.011;    0.000; 2.02520; 0.08930
 528.18;  172.735;  166.639;    0.000; 2.06894; 0.09133
 528.76;  201.658;  195.490;    0.000; 2.08928; 0.09233
 529.34;  185.770;  179.736;    0.000; 2.03781; 0.09016
 529.92;  197.052;  190.735;    0.000; 2.11253; 0.09356
 530.51;  191.393;  184.936;    0.000; 2.15826; 0.09569
 531.09;  185.638;  179.047;    0.000; 2.19791; 0.09756
 531.67;  179.365;  173.216;    0.000; 2.04324; 0.09079
 532.25;  200.380;  193.728;    0.000; 2.20039; 0.09788
 532.83;  200.504;  193.951;    0.000; 2.17282; 0.09676
 533.41;  173.818;  166.834;    0.000; 2.28441; 0.10184
 533.99;  202.399;  195.499;    0.000; 2.24478; 0.10019
 534.57;  220.030;  213.242;    0.000; 2.20325; 0.09844
 535.15;  183.335;  176.284;    0.000; 2.27777; 0.10188
 535.74;  178.200;  171.088;    0.000; 2.28470; 0.10230
 536.32;  185.410;  178.227;    0.000; 2.30434; 0.10329
 536.90;  177.514;  170.286;    0.000; 2.32195; 0.10419
 537.48;  190.259;  182.914;    0.000; 2.33087; 0.10471
 538.06;  206.577;  199.132;    0.000; 2.35595; 0.10595
 538.64;  196.549;  189.253;    0.000; 2.30131; 0.10360
 539.22;  184.046;  176.580;    0.000; 2.34754; 0.10580
 539.80;  190.245;  182.768;    0.000; 2.34939; 0.10599
 540.38;  205.891;  198.642;    0.000; 2.26583; 0.10233
 540.96;  175.513;  168.110;    0.000; 2.29648; 0.10383
 541.54;  183.385;  176.044;    0.000; 2.27631; 0.10303
 542.12;  225.969;  218.703;    0.000; 2.24453; 0.10170
 542.70;  171.710;  164.706;    0.000; 2.16415; 0.09816
 543.28;  187.834;  181.199;    0.000; 2.03968; 0.09262
 543.86;  182.135;  175.570;    0.000; 2.01992; 0.09182
 544.44;  233.373;  226.903;    0.000; 1.95513; 0.08897
 545.02;  199.626;  193.188;    0.000; 1.95317; 0.08897
 545.61;  192.434;  185.973;    0.000; 1.95003; 0.08892
 546.19;  193.110;  186.287;    0.000; 2.05660; 0.09388
 546.77;  189.593;  183.029;    0.000; 1.97493; 0.09025
 547.35;  224.341;  217.445;    0.000; 2.04928; 0.09375
 547.93;  199.811;  192.653;    0.000; 2.12868; 0.09748
 548.51;  198.865;  191.460;    0.000; 2.19224; 0.10050
 549.09;  206.944;  199.238;    0.000; 2.27415; 0.10436
 549.67;  209.430;  201.413;    0.000; 2.35699; 0.10828
 550.25;  188.843;  180.467;    0.000; 2.45790; 0.11304
 550.83;  214.864;  206.049;    0.000; 2.57761; 0.11867
 551.41;  202.110;  192.918;    0.000; 2.68099; 0.12356
 551.99;  202.425;  192.633;    0.000; 2.84713; 0.13135
 552.57;  204.536;  194.235;    0.000; 2.98094; 0.13767
 553.15;  221.767;  211.247;    0.000; 3.03573; 0.14034
 553.73;  182.027;  170.796;    0.000; 3.22291; 0.14915
 554.30;  212.829;  201.076;    0.000; 3.36353; 0.15583
 554.88;  201.566;  189.104;    0.000; 3.56606; 0.16538
 555.46;  211.059;  198.076;    0.000; 3.68360; 0.17101
 556.04;  204.596;  191.230;    0.000; 3.78469; 0.17589
 556.62;  225.662;  211.783;    0.000; 3.92818; 0.18275
 557.20;  187.168;  172.510;    0.000; 4.13536; 0.19258
 557.78;  214.678;  199.628;    0.000; 4.21337; 0.19642
 558.36;  229.109;  213.408;    0.000; 4.38878; 0.20481
 558.94;  225.674;  209.962;    0.000; 4.38287; 0.20475
 559.52;  198.937;  182.811;    0.000; 4.48256; 0.20962
 560.10;  213.256;  196.803;    0.000; 4.57221; 0.21404
 560.68;  214.544;  197.623;    0.000; 4.66570; 0.21864
 561.26;  232.643;  215.547;    0.000; 4.71394; 0.22113
 561.84;  192.402;  175.380;    0.000; 4.71582; 0.22144
 562.42;  209.129;  191.749;    0.000; 4.79116; 0.22521
 563.00;  217.007;  198.893;    0.000; 4.97295; 0.23400
 563.58;  213.052;  195.042;    0.000; 4.94123; 0.23275
 564.15;  210.047;  191.750;    0.000; 5.01672; 0.23654
 564.73;  216.412;  197.963;    0.000; 5.02719; 0.23728
 565.31;  229.309;  210.837;    0.000; 5.04325; 0.23828
 565.89;  195.282;  176.434;    0.000; 5.15053; 0.24360
 566.47;  204.653;  185.691;    0.000; 5.16634; 0.24460
 567.05;  222.928;  203.498;    0.000; 5.29519; 0.25096
 567.63;  211.628;  191.789;    0.000; 5.38564; 0.25550
 568.21;  204.799;  184.871;    0.000; 5.38917; 0.25593
 568.79;  227.577;  207.288;    0.000; 5.47674; 0.26035
 569.36;  252.354;  232.325;    0.000; 5.40340; 0.25713
 569.94;  206.536;  186.410;    0.000; 5.46632; 0.26039
 570.52;  224.836;  204.240;    0.000; 5.54547; 0.26443
 571.10;  174.096;  153.339;    0.000; 5.59061; 0.26685
 571.68;  213.998;  193.597;    0.000; 5.49065; 0.26234
 572.26;  225.481;  204.915;    0.000; 5.52816; 0.26440
 572.84;  228.597;  207.933;    0.000; 5.57164; 0.26675
 573.41;  204.392;  184.344;    0.000; 5.40056; 0.25882
 573.99;  247.830;  227.700;    0.000; 5.43316; 0.26065
 574.57;  211.212;  190.892;    0.000; 5.46789; 0.26258
 575.15;  240.918;  221.240;    0.000; 5.30867; 0.25519
 575.73;  225.962;  205.822;    0.000; 5.45572; 0.26252
 576.31;  222.693;  203.119;    0.000; 5.31749; 0.25613
 576.88;  198.477;  178.843;    0.000; 5.30884; 0.25597
 577.46;  206.156;  186.610;    0.000; 5.28003; 0.25483
 578.04;  201.600;  182.413;    0.000; 5.20234; 0.25133
 578.62;  199.058;  180.395;    0.000; 5.09867; 0.24657
 579.20;  204.407;  185.708;    0.000; 5.11593; 0.24765
 579.78;  212.694;  194.199;    0.000; 5.04053; 0.24425
 580.35;  212.312;  194.157;    0.000; 4.95542; 0.24036
 580.93;  200.285;  182.196;    0.000; 4.95035; 0.24036
 581.51;  216.188;  198.276;    0.000; 4.90736; 0.23851
 582.09;  193.219;  175.599;    0.000; 4.83999; 0.23546
 582.67;  193.827;  176.413;    0.000; 4.78875; 0.23320
 583.24;  198.230;  180.675;    0.000; 4.84100; 0.23598
 583.82;  198.025;  181.014;    0.000; 4.68287; 0.22850
 584.40;  198.074;  181.026;    0.000; 4.72543; 0.23080
 584.98;  198.461;  181.635;    0.000; 4.65250; 0.22747
 585.55;  208.930;  192.362;    0.000; 4.57514; 0.22391
 586.13;  183.347;  167.212;    0.000; 4.44888; 0.21794
 586.71;  203.697;  187.714;    0.000; 4.41541; 0.21651
 587.29;  200.253;  184.222;    0.000; 4.42182; 0.21704
 587.86;  199.025;  183.243;    0.000; 4.36965; 0.21469
 588.44;  163.654;  148.258;    0.000; 4.26318; 0.20967
 589.02;  215.521;  200.481;    0.000; 4.17041; 0.20531
 589.60;  192.470;  177.644;    0.000; 4.12252; 0.20315
 590.17;  202.340;  187.397;    0.000; 4.16776; 0.20558
 590.75;  180.028;  165.809;    0.000; 3.98929; 0.19697
 591.33;  178.713;  164.958;    0.000; 3.87536; 0.19153
 591.91;  189.991;  176.505;    0.000; 3.81018; 0.18849
 592.48;  184.162;  170.959;    0.000; 3.76152; 0.18627
 593.06;  202.973;  189.817;    0.000; 3.75503; 0.18613
 593.64;  196.648;  183.993;    0.000; 3.63663; 0.18043
 594.21;  181.102;  168.773;    0.000; 3.57430; 0.17751
 594.79;  191.609;  179.743;    0.000; 3.44933; 0.17147
 595.37;  190.805;  179.113;    0.000; 3.41087; 0.16972
 595.95;  175.290;  163.901;    0.000; 3.34227; 0.16647
 596.52;  185.397;  174.235;    0.000; 3.27161; 0.16311
 597.10;  191.621;  180.885;    0.000; 3.16708; 0.15805
 597.68;  175.917;  165.189;    0.000; 3.16244; 0.15797
 598.25;  195.850;  185.539;    0.000; 3.06757; 0.15338
 598.83;  176.396;  166.601;    0.000; 2.94032; 0.14716
 599.41;  187.792;  177.871;    0.000; 2.98593; 0.14959
 599.98;  215.179;  205.520;    0.000; 2.91392; 0.14612
 600.56;  202.101;  192.629;    0.000; 2.87982; 0.14455
 601.14;  183.781;  174.551;    0.000; 2.80976; 0.14117
 601.71;  188.499;  179.510;    0.000; 2.74857; 0.13823
 602.29;  175.859;  167.253;    0.000; 2.63987; 0.13289
 602.87;  200.142;  191.779;    0.000; 2.58261; 0.13013
 603.44;  195.165;  187.005;    0.000; 2.52877; 0.12754
 604.02;  184.993;  177.196;    0.000; 2.42582; 0.12246
 604.60;  207.911;  200.098;    0.000; 2.44260; 0.12343
 605.17;  213.232;  205.706;    0.000; 2.37316; 0.12003
 605.75;  206.587;  199.328;    0.000; 2.28748; 0.11581
 606.33;  194.528;  187.322;    0.000; 2.28672; 0.11588
 606.90;  215.578;  208.557;    0.000; 2.23362; 0.11330
 607.48;  202.845;  196.196;    0.000; 2.13527; 0.10841
 608.05;  181.304;  174.758;    0.000; 2.10736; 0.10710
 608.63;  189.204;  182.748;    0.000; 2.09129; 0.10638
 609.21;  179.038;  172.761;    0.000; 2.04727; 0.10424
 609.78;  208.855;  202.609;    0.000; 2.03196; 0.10356
 610.36;  197.890;  191.836;    0.000; 1.98169; 0.10109
 610.93;  200.899;  194.947;    0.000; 1.96339; 0.10025
 611.51;  183.440;  177.580;    0.000; 1.93147; 0.09872
 612.09;  212.684;  206.804;    0.000; 1.95317; 0.09992
 612.66;  194.395;  188.821;    0.000; 1.85923; 0.09520
 613.24;  207.349;  201.964;    0.000; 1.79908; 0.09221
 613.81;  213.920;  208.445;    0.000; 1.84132; 0.09446
 614.39;  207.915;  202.495;    0.000; 1.82997; 0.09397
 614.96;  223.531;  218.285;    0.000; 1.77277; 0.09112
 615.54;  206.927;  201.811;    0.000; 1.74422; 0.08973
 616.12;  217.635;  212.328;    0.000; 1.80745; 0.09307
 616.69;  176.557;  171.290;    0.000; 1.81386; 0.09349
 617.27;  202.716;  197.709;    0.000; 1.72693; 0.08909
 617.84;  182.472;  177.396;    0.000; 1.75558; 0.09066
 618.42;  219.380;  214.402;    0.000; 1.73104; 0.08947
 618.99;  201.828;  197.032;    0.000; 1.66955; 0.08637
 619.57;  221.002;  216.284;    0.000; 1.65030; 0.08546
 620.14;  207.193;  202.433;    0.000; 1.67158; 0.08664
 620.72;  188.665;  183.970;    0.000; 1.65318; 0.08577
 621.30;  210.972;  206.392;    0.000; 1.61878; 0.08406
 621.87;  219.121;  214.702;    0.000; 1.57035; 0.08162
 622.45;  212.814;  208.563;    0.000; 1.51830; 0.07899
 623.02;  183.956;  179.711;    0.000; 1.51933; 0.07911
 623.60;  192.630;  188.319;    0.000; 1.55156; 0.08087
 624.17;  201.153;  197.063;    0.000; 1.46793; 0.07658
 624.75;  210.794;  206.913;    0.000; 1.40504; 0.07336
 625.32;  198.141;  194.223;    0.000; 1.42273; 0.07436
 625.90;  201.454;  197.640;    0.000; 1.39298; 0.07287
 626.47;  216.494;  212.852;    0.000; 1.33160; 0.06972
 627.05;  189.703;  186.156;    0.000; 1.29957; 0.06811
 627.62;  204.596;  200.994;    0.000; 1.32755; 0.06964
 628.20;  223.580;  220.370;    0.000; 1.18274; 0.06210
 628.77;  216.605;  213.560;    0.000; 1.12796; 0.05928
 629.34;  235.383;  231.999;    0.000; 1.25444; 0.06598
 629.92;  195.052;  191.508;    0.000; 1.32085; 0.06954
 630.49;  218.559;  215.131;    0.000; 1.28204; 0.06756
 631.07;  193.455;  189.923;    0.000; 1.32411; 0.06984
 631.64;  193.578;  190.304;    0.000; 1.23004; 0.06494
 632.22;  238.319;  234.880;    0.000; 1.29703; 0.06853
 632.79;  210.180;  206.983;    0.000; 1.20649; 0.06381
 633.37;  216.144;  213.034;    0.000; 1.18025; 0.06248
 633.94;  210.053;  206.835;    0.000; 1.22641; 0.06498
 634.52;  206.567;  203.455;    0.000; 1.18713; 0.06296
 635.09;  218.826;  215.626;    0.000; 1.22209; 0.06487
 635.66;  186.583;  183.681;    0.000; 1.10899; 0.05892
 636.24;  199.896;  197.050;    0.000; 1.09384; 0.05817
 636.81;  241.989;  239.273;    0.000; 1.04326; 0.05553
 637.39;  223.539;  220.878;    0.000; 1.02243; 0.05447
 637.96;  220.576;  217.592;    0.000; 1.14950; 0.06129
 638.54;  219.729;  216.975;    0.000; 1.06524; 0.05685
 639.11;  195.403;  192.690;    0.000; 1.05271; 0.05623
 639.68;  220.680;  217.917;    0.000; 1.07537; 0.05749
 640.26;  205.599;  202.863;    0.000; 1.06525; 0.05700
 640.83;  207.862;  205.388;    0.000; 0.96689; 0.05179
 641.41;  200.342;  197.788;    0.000; 0.99503; 0.05334
 641.98;  206.989;  204.495;    0.000; 0.97789; 0.05247
 642.55;  185.065;  182.635;    0.000; 0.95228; 0.05114
 643.13;  204.301;  201.958;    0.000; 0.91881; 0.04939
 643.70;  222.255;  219.887;    0.000; 0.93306; 0.05020
 644.27;  209.014;  206.853;    0.000; 0.84720; 0.04562
 644.85;  198.536;  196.187;    0.000; 0.92919; 0.05008
 645.42;  206.080;  203.855;    0.000; 0.87836; 0.04738
 645.99;  195.664;  193.214;    0.000; 0.97018; 0.05238
 646.57;  200.157;  197.790;    0.000; 0.93597; 0.05058
 647.14;  208.071;  205.513;    0.000; 1.01183; 0.05473
 647.72;  186.868;  184.430;    0.000; 0.96891; 0.05245
 648.29;  196.308;  193.897;    0.000; 0.95400; 0.05169
 648.86;  222.095;  219.398;    0.000; 1.07195; 0.05813
 649.44;  190.304;  187.823;    0.000; 0.98639; 0.05354
 650.01;  196.072;  193.818;    0.000; 0.89781; 0.04877
 650.58;  206.870;  204.393;    0.000; 0.98811; 0.05373
 651.16;  203.915;  201.589;    0.000; 0.92874; 0.05054
 651.73;  193.792;  191.494;    0.000; 0.91338; 0.04975
 652.30;  209.865;  207.512;    0.000; 0.93819; 0.05115
 652.87;  195.344;  193.206;    0.000; 0.85407; 0.04660
 653.45;  215.993;  213.790;    0.000; 0.88027; 0.04807
 654.02;  192.732;  190.733;    0.000; 0.79968; 0.04371
 654.59;  201.823;  199.788;    0.000; 0.81522; 0.04460
 655.17;  205.200;  203.207;    0.000; 0.79131; 0.04333
 655.74;  190.612;  188.642;    0.000; 0.78404; 0.04297
 656.31;  204.556;  202.529;    0.000; 0.80578; 0.04420
 656.89;  202.596;  200.547;    0.000; 0.81178; 0.04457
 657.46;  209.449;  207.399;    0.000; 0.81350; 0.04470
 658.03;  216.188;  214.310;    0.000; 0.74481; 0.04096
 658.60;  198.844;  196.963;    0.000; 0.74337; 0.04092
 659.18;  211.732;  209.735;    0.000; 0.78482; 0.04324
 659.75;  199.371;  197.555;    0.000; 0.71180; 0.03925
 660.32;  217.270;  215.300;    0.000; 0.77057; 0.04253
 660.89;  197.942;  195.763;    0.000; 0.85054; 0.04698
 661.47;  216.464;  214.524;    0.000; 0.75484; 0.04173
 662.04;  216.873;  215.034;    0.000; 0.71325; 0.03947
 662.61;  199.713;  197.793;    0.000; 0.74122; 0.04105
 663.18;  205.545;  203.574;    0.000; 0.75388; 0.04179
 663.76;  185.770;  183.694;    0.000; 0.79610; 0.04416
 664.33;  212.525;  210.577;    0.000; 0.74196; 0.04120
 664.90;  208.788;  206.838;    0.000; 0.74096; 0.04118
 665.47;  203.776;  201.716;    0.000; 0.78262; 0.04353
 666.05;  195.894;  193.873;    0.000; 0.76332; 0.04249
 666.62;  227.391;  225.326;    0.000; 0.78088; 0.04351
 667.19;  193.349;  191.287;    0.000; 0.78221; 0.04362
 667.76;  189.859;  188.056;    0.000; 0.68370; 0.03816
 668.33;  192.276;  190.223;    0.000; 0.77920; 0.04352
 668.91;  184.981;  183.084;    0.000; 0.72472; 0.04052
 669.48;  198.523;  196.380;    0.000; 0.81795; 0.04577
 670.05;  185.064;  182.957;    0.000; 0.80958; 0.04534
 670.62;  206.552;  204.693;    0.000; 0.71326; 0.03998
 671.19;  202.898;  200.941;    0.000; 0.75182; 0.04218
 671.76;  210.602;  208.683;    0.000; 0.74005; 0.04155
 672.34;  192.756;  190.743;    0.000; 0.77875; 0.04376
 672.91;  199.810;  197.980;    0.000; 0.70908; 0.03988
 673.48;  192.654;  190.811;    0.000; 0.71655; 0.04033
 674.05;  215.136;  213.140;    0.000; 0.77822; 0.04384
 674.62;  210.045;  208.180;    0.000; 0.72301; 0.04077
 675.19;  202.918;  200.899;    0.000; 0.78355; 0.04422
 675.77;  208.261;  206.426;    0.000; 0.71038; 0.04012
 676.34;  180.335;  178.895;    0.000; 0.55982; 0.03165
 676.91;  195.820;  194.029;    0.000; 0.69640; 0.03940
 677.48;  201.210;  199.372;    0.000; 0.71646; 0.04057
 678.05;  198.208;  196.436;    0.000; 0.68786; 0.03898
 678.62;  209.772;  207.949;    0.000; 0.70582; 0.04003
 679.19;  203.035;  201.301;    0.000; 0.66950; 0.03801
 679.77;  194.764;  193.119;    0.000; 0.63652; 0.03616
 680.34;  163.986;  162.121;    0.000; 0.71623; 0.04073
 680.91;  192.473;  190.488;    0.000; 0.76359; 0.04346
 681.48;  197.035;  195.248;    0.000; 0.68707; 0.03913
 682.05;  201.806;  199.900;    0.000; 0.73006; 0.04162
 682.62;  173.332;  171.133;    0.000; 0.84380; 0.04814
 683.19;  190.578;  188.187;    0.000; 0.91765; 0.05240
 683.76;  200.829;  198.515;    0.000; 0.88688; 0.05068
 684.33;  202.121;  200.154;    0.000; 0.75758; 0.04333
 684.90;  180.805;  178.873;    0.000; 0.74472; 0.04263
 685.48;  183.392;  181.391;    0.000; 0.77476; 0.04439
 686.05;  179.785;  177.879;    0.000; 0.73375; 0.04207
 686.62;  201.092;  199.309;    0.000; 0.68898; 0.03954
 687.19;  181.603;  179.618;    0.000; 0.77270; 0.04438
 687.76;  190.699;  188.574;    0.000; 0.82058; 0.04717
 688.33;  193.619;  191.478;    0.000; 0.82473; 0.04745
 688.90;  191.234;  189.128;    0.000; 0.81730; 0.04706
 689.47;  154.366;  152.047;    0.000; 0.89914; 0.05181
 690.04;  179.730;  177.458;    0.000; 0.87973; 0.05074
 690.61;  188.251;  186.277;    0.000; 0.76390; 0.04409
 691.18;  170.186;  168.229;    0.000; 0.75610; 0.04368
 691.75;  212.369;  210.451;    0.000; 0.73975; 0.04277
 692.32;  195.122;  193.272;    0.000; 0.71577; 0.04142
 692.89;  212.081;  210.195;    0.000; 0.72435; 0.04195
 693.46;  195.267;  193.637;    0.000; 0.62504; 0.03623
 694.03;  189.685;  188.215;    0.000; 0.56560; 0.03281
 694.60;  198.288;  196.818;    0.000; 0.56551; 0.03283
 695.17;  192.972;  191.136;    0.000; 0.70457; 0.04094
 695.74;  182.061;  180.665;    0.000; 0.53536; 0.03113
 696.31;  188.309;  186.786;    0.000; 0.58204; 0.03387
 696.88;  196.713;  195.283;    0.000; 0.54566; 0.03178
 697.45;  180.860;  179.592;    0.000; 0.48377; 0.02820
 698.02;  166.752;  165.211;    0.000; 0.58816; 0.03431
 698.59;  170.037;  168.625;    0.000; 0.53897; 0.03147
 699.16;  177.044;  175.534;    0.000; 0.57637; 0.03368
 699.73;  191.095;  189.533;    0.000; 0.59331; 0.03470
 700.30;  176.989;  175.615;    0.000; 0.52225; 0.03057
 700.87;  194.280;  192.765;    0.000; 0.57194; 0.03350
 701.44;  192.875;  191.410;    0.000; 0.55295; 0.03242
 702.01;  188.214;  186.811;    0.000; 0.53163; 0.03119
 702.58;  209.563;  208.302;    0.000; 0.47649; 0.02798
 703.15;  176.237;  175.191;    0.000; 0.39351; 0.02313
 703.72;  193.705;  192.252;    0.000; 0.54727; 0.03219
 704.29;  172.672;  171.328;    0.000; 0.50541; 0.02975
 704.86;  199.741;  198.210;    0.000; 0.57543; 0.03390
 705.43;  192.695;  191.317;    0.000; 0.51543; 0.03039
 706.00;  190.062;  188.895;    0.000; 0.43589; 0.02572
 706.57;  183.621;  182.300;    0.000; 0.49407; 0.02918
 707.14;  177.213;  176.081;    0.000; 0.42371; 0.02504
 707.70;  214.443;  213.074;    0.000; 0.51233; 0.03030
 708.27;  182.386;  181.095;    0.000; 0.48220; 0.02854
 708.84;  177.684;  176.302;    0.000; 0.51652; 0.03060
 709.41;  161.055;  159.793;    0.000; 0.47118; 0.02794
 709.98;  207.969;  206.535;    0.000; 0.53417; 0.03170
 710.55;  179.315;  177.773;    0.000; 0.57545; 0.03417
 711.12;  204.153;  202.562;    0.000; 0.59181; 0.03517
 711.69;  196.942;  195.075;    0.000; 0.69182; 0.04115
 712.26;  199.159;  197.305;    0.000; 0.68858; 0.04099
 712.83;  214.998;  213.161;    0.000; 0.67775; 0.04038
 713.39;  200.809;  198.866;    0.000; 0.72077; 0.04298
 713.96;  209.599;  207.788;    0.000; 0.67004; 0.03998
 714.53;  196.369;  194.621;    0.000; 0.64751; 0.03867
 715.10;  195.196;  193.456;    0.000; 0.64425; 0.03850
 715.67;  177.508;  175.859;    0.000; 0.61035; 0.03651
 716.24;  198.666;  197.213;    0.000; 0.53735; 0.03217
 716.81;  215.181;  213.768;    0.000; 0.52087; 0.03121
 717.37;  199.055;  197.773;    0.000; 0.47540; 0.02850
 717.94;  202.867;  201.605;    0.000; 0.46636; 0.02798
 718.51;  206.933;  205.478;    0.000; 0.53709; 0.03225
 719.08;  189.574;  188.312;    0.000; 0.46592; 0.02800
 719.65;  214.635;  213.466;    0.000; 0.43184; 0.02597
 720.22;  211.949;  210.821;    0.000; 0.41749; 0.02513
 720.78;  203.431;  202.458;    0.000; 0.35865; 0.02161
 721.35;  189.231;  188.071;    0.000; 0.42733; 0.02576
 721.92;  217.417;  216.281;    0.000; 0.41855; 0.02525
 722.49;  205.063;  204.032;    0.000; 0.38032; 0.02297
 723.06;  200.931;  199.930;    0.000; 0.36992; 0.02236
 723.63;  173.299;  172.234;    0.000; 0.39389; 0.02382
 724.19;  213.663;  212.616;    0.000; 0.38486; 0.02329
 724.76;  196.205;  195.146;    0.000; 0.39124; 0.02370
 725.33;  200.609;  199.664;    0.000; 0.34868; 0.02114
 725.90;  220.655;  219.561;    0.000; 0.40293; 0.02445
 726.46;  203.111;  202.049;    0.000; 0.39229; 0.02382
 727.03;  222.641;  221.608;    0.000; 0.38101; 0.02315
 727.60;  163.708;  162.259;    0.000; 0.53529; 0.03255
 728.17;  206.837;  205.588;    0.000; 0.46193; 0.02811
 728.74;  210.149;  208.620;    0.000; 0.56669; 0.03452
 729.30;  196.796;  195.409;    0.000; 0.51403; 0.03133
 729.87;  197.018;  195.854;    0.000; 0.43057; 0.02627
 730.44;  220.774;  219.386;    0.000; 0.51480; 0.03143
 731.01;  210.969;  209.656;    0.000; 0.48757; 0.02979
 731.57;  193.178;  191.804;    0.000; 0.51074; 0.03123
 732.14;  189.906;  188.507;    0.000; 0.52203; 0.03194
 732.71;  191.821;  190.270;    0.000; 0.57766; 0.03538
 733.28;  230.008;  228.544;    0.000; 0.54484; 0.03339
 733.84;  191.714;  190.307;    0.000; 0.52404; 0.03214
 734.41;  190.060;  188.773;    0.000; 0.48149; 0.02955
 734.98;  209.449;  208.076;    0.000; 0.51111; 0.03140
 735.54;  225.586;  224.329;    0.000; 0.46716; 0.02872
 736.11;  194.395;  193.353;    0.000; 0.38990; 0.02399
 736.68;  186.114;  184.804;    0.000; 0.49075; 0.03022
 737.25;  195.803;  194.719;    0.000; 0.40569; 0.02500
 737.81;  206.767;  205.715;    0.000; 0.39475; 0.02434
 738.38;  202.828;  201.516;    0.000; 0.49322; 0.03044
 738.95;  219.052;  217.276;    0.000; 0.66664; 0.04117
 739.51;  212.435;  211.047;    0.000; 0.52488; 0.03244
 740.08;  208.107;  206.865;    0.000; 0.47031; 0.02909
 740.65;  192.791;  191.395;    0.000; 0.52924; 0.03276
 741.21;  206.867;  205.628;    0.000; 0.46838; 0.02902
 741.78;  210.832;  209.473;    0.000; 0.51580; 0.03198
 742.35;  204.177;  202.803;    0.000; 0.52267; 0.03243
 742.91;  219.532;  218.375;    0.000; 0.43894; 0.02725
 743.48;  205.031;  203.982;    0.000; 0.40160; 0.02495
 744.05;  199.687;  198.506;    0.000; 0.45219; 0.02812
 744.61;  206.544;  205.320;    0.000; 0.46803; 0.02913
 745.18;  190.808;  189.867;    0.000; 0.36130; 0.02250
 745.75;  202.276;  201.404;    0.000; 0.33634; 0.02096
 746.31;  232.209;  231.278;    0.000; 0.35832; 0.02235
 746.88;  202.369;  201.559;    0.000; 0.31387; 0.01959
 747.44;  200.271;  199.541;    0.000; 0.28331; 0.01770
 748.01;  228.539;  227.740;    0.000; 0.31017; 0.01939
 748.58;  209.373;  208.465;    0.000; 0.35276; 0.02207
 749.14;  199.089;  198.317;    0.000; 0.30100; 0.01885
 749.71;  198.768;  197.647;    0.000; 0.43931; 0.02753
 750.28;  206.406;  205.587;    0.000; 0.31945; 0.02003
 750.84;  207.084;  206.195;    0.000; 0.34938; 0.02193
 751.41;  192.783;  191.817;    0.000; 0.38004; 0.02387
 751.97;  206.255;  205.619;    0.000; 0.24964; 0.01569
 752.54;  195.147;  194.807;    0.000; 0.13404; 0.00843
 753.11;  193.772;  192.871;    0.000; 0.35808; 0.02254
 753.67;  204.164;  203.147;    0.000; 0.40469; 0.02549
 754.24;  197.815;  196.902;    0.000; 0.36318; 0.02289
 754.80;  222.388;  221.715;    0.000; 0.27079; 0.01708
 755.37;  181.906;  181.201;    0.000; 0.28289; 0.01786
 755.93;  215.138;  214.444;    0.000; 0.27944; 0.01765
 756.50;  208.689;  207.856;    0.000; 0.33492; 0.02118
 757.07;  210.988;  210.221;    0.000; 0.31020; 0.01963
 757.63;  183.288;  182.518;    0.000; 0.31291; 0.01981
 758.20;  189.739;  188.772;    0.000; 0.39484; 0.02502
 758.76;  197.225;  196.408;    0.000; 0.33486; 0.02124
 759.33;  170.551;  169.729;    0.000; 0.33903; 0.02152
 759.89;  197.359;  196.576;    0.000; 0.32312; 0.02052
 760.46;  197.123;  196.075;    0.000; 0.43484; 0.02764
 761.02;  211.452;  210.517;    0.000; 0.38842; 0.02471
 761.59;  192.540;  191.682;    0.000; 0.35743; 0.02275
 762.15;  210.454;  209.293;    0.000; 0.48657; 0.03099
 762.72;  195.914;  194.859;    0.000; 0.44389; 0.02830
 763.28;  185.798;  184.595;    0.000; 0.50703; 0.03235
 763.85;  201.019;  198.914;    0.000; 0.88732; 0.05665
 764.41;  204.992;  202.034;    0.000; 1.26103; 0.08057
 764.98;  210.290;  207.687;    0.000; 1.11315; 0.07117
 765.54;  207.323;  205.484;    0.000; 0.78915; 0.05049
 766.11;  202.352;  200.974;    0.000; 0.59362; 0.03801
 766.67;  180.943;  179.953;    0.000; 0.42742; 0.02739
 767.24;  203.629;  202.608;    0.000; 0.44058; 0.02825
 767.80;  191.488;  190.945;    0.000; 0.23616; 0.01515
 768.37;  189.884;  189.381;    0.000; 0.22008; 0.01413
 768.93;  190.549;  189.886;    0.000; 0.29111; 0.01871
 769.50;  198.588;  197.866;    0.000; 0.31869; 0.02050
 770.06;  188.085;  187.600;    0.000; 0.21478; 0.01382
 770.63;  195.500;  195.087;    0.000; 0.18401; 0.01185
 771.19;  192.198;  191.714;    0.000; 0.21670; 0.01397
 771.75;  180.176;  179.829;    0.000; 0.15564; 0.01004
 772.32;  182.170;  181.957;    0.000; 0.09646; 0.00623
 772.88;  197.493;  197.152;    0.000; 0.15426; 0.00996
 773.45;  190.536;  190.355;    0.000; 0.08246; 0.00533
 774.01;  193.171;  192.787;    0.000; 0.17611; 0.01139
 774.58;  190.698;  190.475;    0.000; 0.10238; 0.00663
 775.14;  212.901;  212.613;    0.000; 0.13174; 0.00853
 775.70;  212.634;  212.575;    0.000; 0.02730; 0.00177
 776.27;  202.878;  202.523;    0.000; 0.16549; 0.01074
 776.83;  206.660;  206.408;    0.000; 0.11743; 0.00762
 777.40;  184.594;  184.363;    0.000; 0.10832; 0.00704
 777.96;  188.740;  188.412;    0.000; 0.15485; 0.01007
 778.52;  209.830;  209.650;    0.000; 0.08540; 0.00556
 779.09;  203.077;  203.018;    0.000; 0.02830; 0.00184
 779.65;  204.537;  204.416;    0.000; 0.05790; 0.00377
 780.22;  190.585;  190.441;    0.000; 0.06968; 0.00454
 780.78;  218.893;  218.732;    0.000; 0.07803; 0.00509
 781.34;  214.693;  214.452;    0.000; 0.11746; 0.00767
 781.91;  193.837;  193.583;    0.000; 0.12397; 0.00810
 782.47;  236.789;  236.577;    0.000; 0.10410; 0.00681
 783.03;  214.293;  214.182;    0.000; 0.05464; 0.00358
 783.60;  193.523;  193.108;    0.000; 0.20711; 0.01356
 784.16;  222.271;  222.210;    0.000; 0.03091; 0.00203
 784.72;  196.293;  196.211;    0.000; 0.04074; 0.00267
 785.29;  204.283;  204.153;    0.000; 0.06550; 0.00430
 785.85;  223.773;  223.615;    0.000; 0.07958; 0.00523
 786.41;  208.311;  208.218;    0.000; 0.04749; 0.00312
 786.98;  199.794;  199.710;    0.000; 0.04330; 0.00285
 787.54;  222.609;  222.452;    0.000; 0.08090; 0.00532
 788.10;  200.091;  199.789;    0.000; 0.15709; 0.01035
 788.67;  213.957;  213.533;    0.000; 0.22156; 0.01460
 789.23;  202.444;  201.375;    0.000; 0.56031; 0.03696
 789.79;  213.726;  213.339;    0.000; 0.20420; 0.01348
 790.36;  194.587;  194.229;    0.000; 0.18932; 0.01251
 790.92;  209.039;  208.772;    0.000; 0.14231; 0.00941
 791.48;  196.554;  196.392;    0.000; 0.08657; 0.00573
 792.05;  216.619;  216.341;    0.000; 0.15001; 0.00993
 792.61;  207.094;  206.902;    0.000; 0.10345; 0.00685
 793.17;  211.812;  211.715;    0.000; 0.05256; 0.00348
 793.73;  214.765;  214.606;    0.000; 0.08706; 0.00578
 794.30;  212.056;  211.929;    0.000; 0.06974; 0.00463
 794.86;  222.028;  221.913;    0.000; 0.06356; 0.00422
 795.42;  205.771;  205.794;    0.000;-0.01301;-0.00086
 795.98;  205.119;  205.452;    0.000;-0.18636;-0.01240
 796.55;  194.282;  193.889;    0.000; 0.22160; 0.01475
 797.11;  212.978;  212.696;    0.000; 0.15961; 0.01063
 797.67;  245.219;  244.860;    0.000; 0.20332; 0.01355
 798.23;  185.913;  185.409;    0.000; 0.28923; 0.01930
 798.80;  216.731;  216.536;    0.000; 0.11266; 0.00752
 799.36;  220.189;  219.938;    0.000; 0.14478; 0.00967
 799.92;  214.061;  213.884;    0.000; 0.10257; 0.00686
 800.48;  220.027;  219.708;    0.000; 0.18640; 0.01247
 801.05;  215.757;  215.602;    0.000; 0.09110; 0.00610
 801.61;  216.911;  216.911;    0.000;-0.00010;-0.00001
 802.17;  204.568;  204.526;    0.000; 0.02448; 0.00164
 802.73;  220.416;  220.336;    0.000; 0.04787; 0.00321
 803.29;  186.330;  186.290;    0.000; 0.02424; 0.00163
 803.86;  215.961;  215.896;    0.000; 0.03922; 0.00263
 804.42;  222.089;  222.030;    0.000; 0.03602; 0.00242
 804.98;  236.905;  236.887;    0.000; 0.01090; 0.00073
 805.54;  221.779;  221.670;    0.000; 0.06714; 0.00452
 806.10;  218.723;  218.700;    0.000; 0.01420; 0.00096
 806.66;  250.613;  250.639;    0.000;-0.01628;-0.00110
 807.23;  222.930;  222.848;    0.000; 0.05129; 0.00346
 807.79;  219.523;  219.513;    0.000; 0.00592; 0.00040
 808.35;  226.408;  226.226;    0.000; 0.11420; 0.00772
 808.91;  207.345;  207.321;    0.000; 0.01502; 0.00102
 809.47;  197.604;  197.445;    0.000; 0.10213; 0.00691
 810.03;  211.661;  211.485;    0.000; 0.11323; 0.00767
 810.60;  240.715;  240.587;    0.000; 0.08287; 0.00561
 811.16;  205.133;  205.052;    0.000; 0.05227; 0.00354
 811.72;  240.540;  240.418;    0.000; 0.07863; 0.00533
 812.28;  208.435;  208.518;    0.000;-0.05410;-0.00367
 812.84;  230.556;  230.561;    0.000;-0.00366;-0.00025
 813.40;  243.506;  243.319;    0.000; 0.12213; 0.00830
 813.96;  232.925;  232.823;    0.000; 0.06691; 0.00455
 814.52;  232.583;  232.481;    0.000; 0.06705; 0.00456
 815.09;  219.724;  219.620;    0.000; 0.06801; 0.00463
 815.65;  234.466;  234.214;    0.000; 0.16750; 0.01142
 816.21;  223.654;  223.398;    0.000; 0.16944; 0.01156
 816.77;  227.965;  228.014;    0.000;-0.03261;-0.00223
 817.33;  226.026;  225.855;    0.000; 0.11402; 0.00779
 817.89;  222.545;  222.413;    0.000; 0.08851; 0.00605
 818.45;  255.280;  255.161;    0.000; 0.08017; 0.00548
 819.01;  229.802;  229.619;    0.000; 0.12361; 0.00846
 819.57;  228.927;  228.482;    0.000; 0.30447; 0.02086
 820.13;  227.917;  227.388;    0.000; 0.36232; 0.02484
 820.69;  246.601;  245.616;    0.000; 0.67489; 0.04629
 821.25;  225.552;  224.390;    0.000; 0.80435; 0.05521
 821.82;  215.862;  213.851;    0.000; 1.40719; 0.09665
 822.38;  237.525;  232.814;    0.000; 3.29666; 0.22659
 822.94;  243.265;  233.838;    0.000; 6.62110; 0.45540
 823.50;  244.017;  233.059;    0.000; 7.75630; 0.53384
 824.06;  239.803;  231.514;    0.000; 5.90844; 0.40693
 824.62;  230.583;  225.407;    0.000; 3.72038; 0.25641
 825.18;  257.898;  254.397;    0.000; 2.52133; 0.17389
 825.74;  217.888;  215.551;    0.000; 1.69267; 0.11682
 826.30;  217.905;  215.793;    0.000; 1.53981; 0.10634
 826.86;  221.772;  219.468;    0.000; 1.68705; 0.11659
 827.42;  237.921;  234.348;    0.000; 2.62870; 0.18179
 827.98;  243.205;  238.974;    0.000; 3.12183; 0.21603
 828.54;  231.573;  228.022;    0.000; 2.63581; 0.18252
 829.10;  218.649;  216.530;    0.000; 1.58406; 0.10977
 829.66;  239.560;  238.425;    0.000; 0.85078; 0.05899
 830.22;  221.109;  220.181;    0.000; 0.70011; 0.04858
 830.78;  209.924;  209.477;    0.000; 0.34014; 0.02362
 831.34;  223.696;  223.777;    0.000;-0.06108;-0.00424
 831.90;  238.061;  237.726;    0.000; 0.25686; 0.01786
 832.46;  224.737;  224.541;    0.000; 0.15136; 0.01053
 833.02;  197.958;  197.532;    0.000; 0.32898; 0.02290
 833.58;  230.074;  229.510;    0.000; 0.43641; 0.03040
 834.14;  222.581;  220.960;    0.000; 1.26169; 0.08796
 834.70;  231.748;  229.437;    0.000; 1.79953; 0.12554
 835.25;  201.198;  199.195;    0.000; 1.56705; 0.10939
 835.81;  210.851;  209.764;    0.000; 0.85841; 0.05997
 836.37;  224.134;  223.596;    0.000; 0.42792; 0.02991
 836.93;  234.103;  233.618;    0.000; 0.38546; 0.02696
 837.49;  228.915;  228.551;    0.000; 0.28885; 0.02022
 838.05;  206.367;  206.352;    0.000; 0.01142; 0.00080
 838.61;  215.123;  215.031;    0.000; 0.07336; 0.00514
 839.17;  211.263;  211.081;    0.000; 0.14738; 0.01034
 839.73;  222.094;  221.999;    0.000; 0.07722; 0.00542
 840.29;  227.873;  227.645;    0.000; 0.18604; 0.01307
 840.85;  208.324;  207.421;    0.000; 0.73592; 0.05172
 841.41;  218.671;  217.914;    0.000; 0.62061; 0.04364
 841.97;  220.520;  220.161;    0.000; 0.29635; 0.02085
 842.52;  218.490;  218.606;    0.000;-0.09527;-0.00671
 843.08;  206.614;  206.620;    0.000;-0.00441;-0.00031
 843.64;  209.672;  209.610;    0.000; 0.05214; 0.00368
 844.20;  219.126;  219.192;    0.000;-0.05503;-0.00388
 844.76;  229.472;  229.630;    0.000;-0.13357;-0.00943
 845.32;  183.314;  183.322;    0.000;-0.00706;-0.00050
 845.88;  213.262;  213.378;    0.000;-0.09849;-0.00696
 846.44;  222.506;  222.674;    0.000;-0.14264;-0.01009
 846.99;  235.449;  235.767;    0.000;-0.27035;-0.01914
 847.55;  217.547;  217.724;    0.000;-0.15052;-0.01066
 848.11;  186.803;  187.810;    0.000;-0.86578;-0.06137
 848.67;  209.449;  209.743;    0.000;-0.25312;-0.01795
 849.23;  190.534;  190.780;    0.000;-0.21217;-0.01506
 849.79;  212.639;  212.943;    0.000;-0.26431;-0.01877
 850.34;  217.980;  218.396;    0.000;-0.36107;-0.02566
 850.90;  191.790;  191.970;    0.000;-0.15691;-0.01116
 851.46;  227.000;  227.368;    0.000;-0.32002;-0.02277
 852.02;  227.493;  227.556;    0.000;-0.05452;-0.00388
 852.58;  182.818;  183.072;    0.000;-0.22444;-0.01599
 853.13;  206.415;  206.654;    0.000;-0.21086;-0.01504
 853.69;  209.055;  209.516;    0.000;-0.40870;-0.02916
 854.25;  245.834;  246.037;    0.000;-0.18055;-0.01289
 854.81;  204.804;  205.126;    0.000;-0.28851;-0.02061
 855.37;  208.909;  209.136;    0.000;-0.20232;-0.01446
 855.92;  231.395;  231.666;    0.000;-0.24282;-0.01737
 856.48;  210.179;  210.475;    0.000;-0.26536;-0.01900
 857.04;  229.373;  229.600;    0.000;-0.20477;-0.01467
 857.60;  225.570;  226.025;    0.000;-0.40995;-0.02938
 858.16;  221.389;  221.541;    0.000;-0.13822;-0.00991
 858.71;  232.836;  233.122;    0.000;-0.25959;-0.01863
 859.27;  216.248;  216.458;    0.000;-0.19219;-0.01380
 859.83;  214.426;  214.641;    0.000;-0.19773;-0.01421
 860.39;  211.382;  211.466;    0.000;-0.07748;-0.00557
 860.94;  211.253;  211.287;    0.000;-0.03139;-0.00226
 861.50;  205.276;  205.361;    0.000;-0.07804;-0.00562
 862.06;  221.141;  221.536;    0.000;-0.36543;-0.02633
 862.61;  221.233;  221.332;    0.000;-0.09281;-0.00669
 863.17;  192.551;  192.719;    0.000;-0.15665;-0.01130
 863.73;  227.300;  227.325;    0.000;-0.02392;-0.00173
 864.29;  215.166;  215.347;    0.000;-0.16884;-0.01220
 864.84;  222.471;  222.701;    0.000;-0.21610;-0.01562
 865.40;  223.170;  223.301;    0.000;-0.12335;-0.00892
 865.96;  208.497;  208.644;    0.000;-0.13890;-0.01005
 866.51;  215.851;  215.885;    0.000;-0.03210;-0.00232
 867.07;  222.105;  222.294;    0.000;-0.17918;-0.01298
 867.63;  238.315;  238.549;    0.000;-0.22363;-0.01622
 868.18;  230.690;  230.834;    0.000;-0.13652;-0.00991
 868.74;  235.910;  235.953;    0.000;-0.04076;-0.00296
 869.30;  217.225;  217.405;    0.000;-0.17269;-0.01255
 869.86;  205.453;  205.584;    0.000;-0.12585;-0.00915
 870.41;  242.393;  242.432;    0.000;-0.03733;-0.00272
 870.97;  211.311;  211.362;    0.000;-0.05006;-0.00364
 871.52;  216.205;  216.014;    0.000; 0.18584; 0.01354
 872.08;  238.523;  238.608;    0.000;-0.08184;-0.00596
 872.64;  222.196;  222.165;    0.000; 0.03079; 0.00225
 873.19;  200.628;  200.585;    0.000; 0.04088; 0.00298
 873.75;  213.911;  213.885;    0.000; 0.02602; 0.00190
 874.31;  206.580;  206.496;    0.000; 0.08149; 0.00595
 874.86;  230.732;  230.621;    0.000; 0.10762; 0.00787
 875.42;  239.694;  239.574;    0.000; 0.11583; 0.00848
 875.98;  220.986;  220.713;    0.000; 0.26524; 0.01942
 876.53;  224.151;  223.910;    0.000; 0.23385; 0.01713
 877.09;  233.453;  233.058;    0.000; 0.38105; 0.02793
 877.64;  225.722;  225.465;    0.000; 0.24846; 0.01822
 878.20;  221.344;  221.097;    0.000; 0.23811; 0.01748
 878.76;  235.298;  234.806;    0.000; 0.47210; 0.03467
 879.31;  196.304;  195.534;    0.000; 0.73837; 0.05426
 879.87;  229.411;  228.384;    0.000; 0.98705; 0.07259
 880.42;  225.841;  223.729;    0.000; 2.01250; 0.14809
 880.98;  216.259;  211.781;    0.000; 4.25832; 0.31354
 881.54;  252.713;  244.861;    0.000; 7.44579; 0.54859
 882.09;  230.164;  220.819;    0.000; 8.85549; 0.65286
 882.65;  246.460;  238.152;    0.000; 7.81914; 0.57682
 883.20;  239.759;  233.557;    0.000; 5.84374; 0.43137
 883.76;  235.955;  231.779;    0.000; 3.92043; 0.28957
 884.31;  231.500;  228.572;    0.000; 2.75559; 0.20366
 884.87;  257.976;  255.751;    0.000; 2.09681; 0.15507
 885.42;  221.452;  219.945;    0.000; 1.41920; 0.10502
 885.98;  209.249;  207.906;    0.000; 1.27137; 0.09414
 886.53;  228.718;  227.739;    0.000; 0.92766; 0.06873
 887.09;  237.361;  236.409;    0.000; 0.90802; 0.06732
 887.65;  228.252;  227.526;    0.000; 0.68911; 0.05112
 888.20;  224.812;  224.257;    0.000; 0.53449; 0.03968
 888.76;  220.575;  220.149;    0.000; 0.41090; 0.03052
 889.31;  231.024;  230.642;    0.000; 0.36968; 0.02748
 889.87;  232.746;  232.361;    0.000; 0.37736; 0.02807
 890.42;  222.717;  221.884;    0.000; 0.82095; 0.06109
 890.98;  228.262;  227.875;    0.000; 0.38498; 0.02867
 891.53;  203.446;  203.050;    0.000; 0.39544; 0.02947
 892.09;  239.853;  239.409;    0.000; 0.44470; 0.03316
 892.64;  220.574;  219.996;    0.000; 0.58375; 0.04355
 893.19;  225.125;  224.495;    0.000; 0.63933; 0.04773
 893.75;  209.826;  208.719;    0.000; 1.13270; 0.08461
 894.30;  243.367;  241.587;    0.000; 1.83034; 0.13681
 894.86;  211.234;  208.079;    0.000; 3.26318; 0.24406
 895.41;  250.489;  247.290;    0.000; 3.32432; 0.24878
 895.97;  215.174;  212.734;    0.000; 2.56955; 0.19242
 896.52;  245.775;  244.211;    0.000; 1.64306; 0.12311
 897.08;  230.418;  229.390;    0.000; 1.08687; 0.08149
 897.63;  245.371;  244.713;    0.000; 0.69964; 0.05249
 898.19;  228.201;  227.415;    0.000; 0.83843; 0.06294
 898.74;  248.968;  248.392;    0.000; 0.61839; 0.04645
 899.29;  244.258;  243.591;    0.000; 0.72118; 0.05421
 899.85;  221.695;  221.378;    0.000; 0.34319; 0.02581
 900.40;  227.420;  227.039;    0.000; 0.41458; 0.03120
 900.96;  229.291;  228.993;    0.000; 0.32697; 0.02462
 901.51;  226.057;  225.680;    0.000; 0.41706; 0.03142
 902.06;  230.698;  230.286;    0.000; 0.45361; 0.03420
 902.62;  241.160;  240.852;    0.000; 0.34039; 0.02568
 903.17;  237.211;  236.432;    0.000; 0.86046; 0.06495
 903.73;  242.097;  240.049;    0.000; 2.26914; 0.17139
 904.28;  225.571;  221.853;    0.000; 4.14987; 0.31364
 904.83;  254.517;  250.732;    0.000; 4.24356; 0.32092
 905.39;  209.530;  206.897;    0.000; 2.96483; 0.22435
 905.94;  232.062;  230.578;    0.000; 1.67230; 0.12662
 906.50;  243.664;  242.997;    0.000; 0.75904; 0.05751
 907.05;  222.521;  222.215;    0.000; 0.34810; 0.02639
 907.60;  241.565;  241.240;    0.000; 0.37029; 0.02809
 908.16;  231.214;  230.872;    0.000; 0.39103; 0.02968
 908.71;  234.488;  234.411;    0.000; 0.08868; 0.00674
 909.26;  239.203;  239.082;    0.000; 0.13908; 0.01057
 909.82;  230.380;  230.260;    0.000; 0.13833; 0.01052
 910.37;  233.396;  233.360;    0.000; 0.04220; 0.00321
 910.92;  243.742;  243.703;    0.000; 0.04569; 0.00348
 911.48;  241.111;  241.096;    0.000; 0.01725; 0.00131
 912.03;  214.183;  213.993;    0.000; 0.22208; 0.01693
 912.58;  231.704;  231.652;    0.000; 0.06078; 0.00464
 913.14;  238.386;  238.096;    0.000; 0.34224; 0.02612
 913.69;  258.550;  257.975;    0.000; 0.67751; 0.05174
 914.24;  224.201;  223.168;    0.000; 1.22035; 0.09325
 914.79;  220.349;  218.681;    0.000; 1.97824; 0.15125
 915.35;  237.492;  234.324;    0.000; 3.77661; 0.28892
 915.90;  248.151;  243.554;    0.000; 5.46802; 0.41857
 916.45;  225.991;  221.323;    0.000; 5.60063; 0.42898
 917.01;  240.190;  236.378;    0.000; 4.59896; 0.35247
 917.56;  234.239;  231.714;    0.000; 3.06518; 0.23506
 918.11;  232.098;  230.542;    0.000; 1.88881; 0.14494
 918.66;  228.356;  227.230;    0.000; 1.36951; 0.10515
 919.22;  239.851;  239.171;    0.000; 0.82988; 0.06376
 919.77;  222.709;  222.075;    0.000; 0.77380; 0.05948
 920.32;  227.844;  227.401;    0.000; 0.54464; 0.04189
 920.87;  235.281;  234.728;    0.000; 0.67880; 0.05224
 921.43;  227.478;  227.194;    0.000; 0.35202; 0.02711
 921.98;  215.504;  215.122;    0.000; 0.47663; 0.03673
 922.53;  219.873;  219.347;    0.000; 0.65179; 0.05026
 923.08;  228.142;  228.000;    0.000; 0.17671; 0.01363
 923.64;  230.532;  230.426;    0.000; 0.13275; 0.01025
 924.19;  233.458;  233.592;    0.000;-0.16837;-0.01300
 924.74;  211.323;  211.427;    0.000;-0.13071;-0.01010
 925.29;  258.184;  258.299;    0.000;-0.14571;-0.01127
 925.84;  239.712;  239.744;    0.000;-0.04073;-0.00315
 926.40;  216.788;  216.928;    0.000;-0.17749;-0.01374
 926.95;  217.833;  218.050;    0.000;-0.27759;-0.02151
 927.50;  218.302;  218.447;    0.000;-0.18510;-0.01435
 928.05;  232.714;  232.769;    0.000;-0.07031;-0.00545
 928.60;  216.115;  216.323;    0.000;-0.26862;-0.02085
 929.15;  232.641;  232.906;    0.000;-0.34335;-0.02666
 929.71;  245.057;  245.244;    0.000;-0.24452;-0.01900
 930.26;  220.655;  220.700;    0.000;-0.05908;-0.00459
 930.81;  230.051;  230.208;    0.000;-0.20752;-0.01614
 931.36;  238.314;  238.344;    0.000;-0.04064;-0.00316
 931.91;  246.241;  246.265;    0.000;-0.03157;-0.00246
 932.46;  242.891;  243.093;    0.000;-0.26884;-0.02095
 933.02;  228.763;  228.907;    0.000;-0.19256;-0.01502
 933.57;  215.309;  215.534;    0.000;-0.30242;-0.02360
 934.12;  218.465;  218.481;    0.000;-0.02122;-0.00166
 934.67;  233.222;  233.504;    0.000;-0.38451;-0.03004
 935.22;  224.944;  225.018;    0.000;-0.09984;-0.00780
 935.77;  248.727;  248.873;    0.000;-0.19806;-0.01549
 936.32;  237.819;  237.640;    0.000; 0.24494; 0.01917
 936.87;  235.253;  235.238;    0.000; 0.01993; 0.00156
 937.42;  232.217;  231.990;    0.000; 0.31313; 0.02453
 937.98;  210.323;  210.220;    0.000; 0.14286; 0.01120
 938.53;  227.256;  226.953;    0.000; 0.42220; 0.03312
 939.08;  216.757;  216.827;    0.000;-0.09821;-0.00771
 939.63;  240.292;  240.318;    0.000;-0.03639;-0.00286
 940.18;  250.244;  250.284;    0.000;-0.05654;-0.00444
 940.73;  225.829;  225.928;    0.000;-0.14001;-0.01101
 941.28;  214.174;  214.189;    0.000;-0.02235;-0.00176
 941.83;  223.002;  223.125;    0.000;-0.17598;-0.01385
 942.38;  214.970;  215.355;    0.000;-0.55113;-0.04341
 942.93;  234.590;  234.781;    0.000;-0.27471;-0.02165
 943.48;  230.755;  230.821;    0.000;-0.09564;-0.00754
 944.03;  215.931;  216.203;    0.000;-0.39715;-0.03134
 944.58;  219.382;  219.551;    0.000;-0.24750;-0.01954
 945.13;  215.951;  216.132;    0.000;-0.26792;-0.02116
 945.68;  207.634;  207.706;    0.000;-0.10598;-0.00838
 946.23;  219.092;  219.250;    0.000;-0.23426;-0.01853
 946.79;  218.338;  218.316;    0.000; 0.03247; 0.00257
 947.34;  237.246;  237.203;    0.000; 0.06324; 0.00501
 947.89;  243.199;  243.257;    0.000;-0.08676;-0.00687
 948.44;  222.019;  222.160;    0.000;-0.21317;-0.01690
 948.99;  222.160;  222.206;    0.000;-0.07052;-0.00559
 949.54;  235.658;  235.660;    0.000;-0.00327;-0.00026
 950.09;  217.934;  217.698;    0.000; 0.36187; 0.02873
 950.64;  221.691;  221.638;    0.000; 0.08099; 0.00643
 951.19;  200.787;  200.515;    0.000; 0.42217; 0.03356
 951.73;  193.804;  193.717;    0.000; 0.13625; 0.01084
 952.28;  236.281;  236.219;    0.000; 0.09658; 0.00769
 952.83;  228.562;  228.392;    0.000; 0.26578; 0.02117
 953.38;  245.399;  245.394;    0.000; 0.00873; 0.00070
 953.93;  223.431;  223.511;    0.000;-0.12591;-0.01004
 954.48;  221.009;  221.143;    0.000;-0.21182;-0.01690
 955.03;  228.116;  228.303;    0.000;-0.29914;-0.02388
 955.58;  224.588;  224.731;    0.000;-0.23089;-0.01844
 956.13;  198.543;  198.764;    0.000;-0.35618;-0.02846
 956.68;  208.220;  208.470;    0.000;-0.40827;-0.03264
 957.23;  198.308;  198.478;    0.000;-0.27803;-0.02224
 957.78;  210.093;  210.414;    0.000;-0.52702;-0.04219
 958.33;  190.851;  190.993;    0.000;-0.23602;-0.01890
 958.88;  216.877;  217.068;    0.000;-0.31903;-0.02557
 959.43;  226.238;  226.542;    0.000;-0.50928;-0.04084
 959.98;  211.341;  211.595;    0.000;-0.42697;-0.03426
 960.53;  243.881;  244.242;    0.000;-0.61423;-0.04931
 961.07;  209.200;  209.472;    0.000;-0.46447;-0.03731
 961.62;  255.397;  255.651;    0.000;-0.43360;-0.03485
 962.17;  217.679;  218.010;    0.000;-0.57418;-0.04617
 962.72;  223.814;  224.051;    0.000;-0.41342;-0.03326
 963.27;  224.335;  224.572;    0.000;-0.41180;-0.03315
 963.82;  209.904;  210.206;    0.000;-0.53060;-0.04274
 964.37;  230.207;  230.530;    0.000;-0.57325;-0.04620
 964.92;  212.065;  212.348;    0.000;-0.50191;-0.04048
 965.46;  200.634;  200.892;    0.000;-0.46125;-0.03722
 966.01;  214.952;  215.337;    0.000;-0.68958;-0.05568
 966.56;  225.111;  225.321;    0.000;-0.37981;-0.03068
 967.11;  231.030;  231.156;    0.000;-0.22807;-0.01843
 967.66;  217.405;  217.493;    0.000;-0.16278;-0.01317
 968.21;  211.394;  211.474;    0.000;-0.14897;-0.01205
 968.75;  231.727;  231.677;    0.000; 0.09293; 0.00752
 969.30;  220.630;  220.692;    0.000;-0.11655;-0.00944
 969.85;  238.830;  238.975;    0.000;-0.27262;-0.02210
 970.40;  228.124;  228.510;    0.000;-0.73141;-0.05932
 970.95;  232.744;  232.674;    0.000; 0.13163; 0.01068
 971.50;  227.980;  228.040;    0.000;-0.11469;-0.00931
 972.04;  229.325;  229.305;    0.000; 0.03762; 0.00306
 972.59;  238.973;  239.094;    0.000;-0.23571;-0.01916
 973.14;  230.988;  231.309;    0.000;-0.63020;-0.05126
 973.69;  238.380;  238.514;    0.000;-0.26214;-0.02133
 974.24;  224.109;  224.179;    0.000;-0.13844;-0.01127
 974.78;  220.387;  220.655;    0.000;-0.53529;-0.04361
 975.33;  250.620;  250.516;    0.000; 0.20870; 0.01701
 975.88;  233.601;  233.681;    0.000;-0.16388;-0.01337
 976.43;  230.198;  230.263;    0.000;-0.13345;-0.01089
 976.97;  225.728;  225.611;    0.000; 0.24007; 0.01960
 977.52;  215.968;  215.799;    0.000; 0.35024; 0.02861
 978.07;  261.074;  260.659;    0.000; 0.86126; 0.07040
 978.62;  249.936;  249.096;    0.000; 1.75411; 0.14347
 979.16;  249.021;  246.752;    0.000; 4.79935; 0.39276
 979.71;  216.664;  214.126;    0.000; 5.37775; 0.44034
 980.26;  238.036;  236.011;    0.000; 4.34820; 0.35624
 980.81;  237.806;  236.533;    0.000; 2.73205; 0.22396
 981.35;  260.609;  260.136;    0.000; 1.02578; 0.08413
 981.90;  247.440;  247.273;    0.000; 0.36670; 0.03009
 982.45;  244.994;  245.093;    0.000;-0.21809;-0.01791
 982.99;  245.762;  245.921;    0.000;-0.35243;-0.02895
 983.54;  246.307;  246.408;    0.000;-0.22628;-0.01860
 984.09;  236.163;  236.422;    0.000;-0.58477;-0.04810
 984.63;  234.427;  234.567;    0.000;-0.31787;-0.02616
 985.18;  246.296;  246.351;    0.000;-0.12720;-0.01047
 985.73;  242.714;  243.005;    0.000;-0.67174;-0.05534
 986.27;  229.715;  230.146;    0.000;-0.99887;-0.08234
 986.82;  236.284;  236.482;    0.000;-0.46403;-0.03827
 987.37;  251.566;  251.654;    0.000;-0.20990;-0.01732
 987.91;  242.301;  242.459;    0.000;-0.37600;-0.03105
 988.46;  251.279;  251.426;    0.000;-0.35092;-0.02899
 989.01;  243.689;  243.988;    0.000;-0.72186;-0.05967
 989.55;  246.182;  246.275;    0.000;-0.22836;-0.01889
 990.10;  253.720;  253.493;    0.000; 0.55591; 0.04600
 990.65;  270.060;  269.596;    0.000; 1.15463; 0.09560
 991.19;  243.090;  241.843;    0.000; 3.11714; 0.25823
 991.74;  259.714;  257.888;    0.000; 4.55834; 0.37783
 992.29;  249.659;  247.762;    0.000; 4.79805; 0.39792
 992.83;  260.997;  259.670;    0.000; 3.39553; 0.28176
 993.38;  255.690;  254.755;    0.000; 2.38465; 0.19799
 993.92;  232.279;  231.897;    0.000; 0.99401; 0.08257
 994.47;  223.048;  223.088;    0.000;-0.10528;-0.00875
 995.02;  238.716;  238.738;    0.000;-0.06047;-0.00503
 995.56;  263.290;  263.320;    0.000;-0.07980;-0.00664
 996.11;  251.360;  251.330;    0.000; 0.08202; 0.00683
 996.65;  253.052;  253.103;    0.000;-0.13682;-0.01140
 997.20;  243.058;  243.521;    0.000;-1.27288;-0.10609
 997.75;  244.479;  244.665;    0.000;-0.51320;-0.04280
 998.29;  220.495;  220.865;    0.000;-1.03344;-0.08623
 998.84;  248.474;  248.701;    0.000;-0.63776;-0.05324
 999.38;  247.774;  248.095;    0.000;-0.91202;-0.07618
 999.93;  263.101;  263.363;    0.000;-0.75333;-0.06296
1000.47;  261.801;  262.279;    0.000;-1.37892;-0.11530
1001.02;  259.301;  259.718;    0.000;-1.22613;-0.10258
1001.56;  245.052;  245.454;    0.000;-1.18334;-0.09906
1002.11;  235.211;  235.555;    0.000;-1.03024;-0.08629
1002.65;  227.665;  227.971;    0.000;-0.91941;-0.07705
1003.20;  235.221;  235.605;    0.000;-1.16403;-0.09760
1003.75;  269.142;  269.354;    0.000;-0.65011;-0.05454
1004.29;  238.244;  238.419;    0.000;-0.53744;-0.04511
1004.84;  221.540;  221.846;    0.000;-0.95308;-0.08004
1005.38;  228.917;  229.507;    0.000;-1.86168;-0.15643
1005.93;  244.295;  244.339;    0.000;-0.13974;-0.01175
1006.47;  227.269;  227.623;    0.000;-1.14157;-0.09603
1007.02;  232.774;  233.088;    0.000;-1.02332;-0.08613
1007.56;  248.665;  249.084;    0.000;-1.36995;-0.11536
1008.11;  251.425;  251.921;    0.000;-1.63736;-0.13796
1008.65;  213.716;  214.219;    0.000;-1.68522;-0.14207
1009.19;  239.944;  240.154;    0.000;-0.70741;-0.05967
1009.74;  236.069;  236.393;    0.000;-1.11243;-0.09388
1010.28;  237.591;  237.750;    0.000;-0.55144;-0.04656
1010.83;  248.356;  248.456;    0.000;-0.34865;-0.02945
1011.37;  240.756;  241.107;    0.000;-1.24222;-0.10500
1011.92;  240.415;  240.796;    0.000;-1.35610;-0.11469
1012.46;  231.138;  231.428;    0.000;-1.03911;-0.08793
1013.01;  268.000;  268.250;    0.000;-0.91113;-0.07714
1013.55;  236.924;  237.196;    0.000;-0.98677;-0.08359
1014.09;  236.468;  236.794;    0.000;-1.20262;-0.10193
1014.64;  228.502;  228.933;    0.000;-1.61653;-0.13708
1015.18;  229.295;  229.425;    0.000;-0.48448;-0.04111
1015.73;  221.563;  221.991;    0.000;-1.63602;-0.13889
1016.27;  246.258;  246.516;    0.000;-0.99317;-0.08436
1016.82;  237.734;  238.036;    0.000;-1.15766;-0.09838
1017.36;  229.035;  229.521;    0.000;-1.89590;-0.16121
1017.90;  217.967;  218.413;    0.000;-1.74516;-0.14847
1018.45;  216.477;  216.951;    0.000;-1.88049;-0.16007
1018.99;  214.281;  214.476;    0.000;-0.78366;-0.06674
1019.53;  205.908;  206.492;    0.000;-2.37523;-0.20240
1020.08;  231.811;  232.059;    0.000;-1.01790;-0.08678
1020.62;  231.902;  232.385;    0.000;-2.02298;-0.17256
1021.17;  237.822;  238.298;    0.000;-2.03041;-0.17329
1021.71;  233.744;  234.111;    0.000;-1.59043;-0.13581
1022.25;  243.801;  244.260;    0.000;-2.01893;-0.17249
1022.80;  219.486;  219.930;    0.000;-1.98647;-0.16981
1023.34;  216.574;  216.980;    0.000;-1.83742;-0.15715
1023.88;  231.088;  231.630;    0.000;-2.50068;-0.21399
1024.43;  234.030;  234.429;    0.000;-1.85332;-0.15868
1024.97;  238.463;  238.855;    0.000;-1.85108;-0.15857
1025.51;  217.476;  218.005;    0.000;-2.52300;-0.21625
1026.06;  233.961;  234.434;    0.000;-2.28525;-0.19597
1026.60;  238.938;  239.437;    0.000;-2.44321;-0.20963
1027.14;  249.326;  249.756;    0.000;-2.13706;-0.18346
1027.69;  238.886;  239.334;    0.000;-2.28921;-0.19662
1028.23;  232.337;  232.974;    0.000;-3.26423;-0.28052
1028.77;  214.078;  214.681;    0.000;-3.09399;-0.26603
1029.31;  227.851;  228.422;    0.000;-2.99809;-0.25792
1029.86;  221.386;  222.044;    0.000;-3.47332;-0.29896
1030.40;  268.405;  268.812;    0.000;-2.19585;-0.18910
1030.94;  235.539;  235.862;    0.000;-1.76675;-0.15223
1031.48;  243.162;  243.569;    0.000;-2.24038;-0.19314
1032.03;  234.400;  234.882;    0.000;-2.70152;-0.23302
1032.57;  236.002;  236.390;    0.000;-2.18663;-0.18871
1033.11;  230.710;  231.142;    0.000;-2.47629;-0.21382
1033.65;  220.981;  221.487;    0.000;-2.96342;-0.25601
1034.20;  238.975;  239.495;    0.000;-3.05919;-0.26443
1034.74;  237.808;  238.256;    0.000;-2.68409;-0.23212
1035.28;  236.468;  237.074;    0.000;-3.70979;-0.32100
1035.82;  215.107;  215.342;    0.000;-1.44065;-0.12472
1036.37;  226.672;  227.199;    0.000;-3.29076;-0.28504
1036.91;  247.607;  248.297;    0.000;-4.35320;-0.37726
1037.45;  242.221;  242.864;    0.000;-4.15209;-0.36002
1037.99;  232.815;  233.231;    0.000;-2.70962;-0.23507
1038.53;  233.133;  233.646;    0.000;-3.39815;-0.29496
1039.08;  221.898;  222.437;    0.000;-3.61621;-0.31405
1039.62;  221.643;  222.405;    0.000;-5.19810;-0.45166
1040.16;  226.839;  227.365;    0.000;-3.58826;-0.31195
1040.70;  231.652;  232.529;    0.000;-6.20216;-0.53947
1041.24;  246.264;  246.647;    0.000;-2.76350;-0.24049
1041.79;  221.925;  222.413;    0.000;-3.50664;-0.30533
1042.33;  229.988;  230.533;    0.000;-3.99277;-0.34783
1042.87;  220.613;  221.189;    0.000;-4.27810;-0.37289
1043.41;  226.555;  227.119;    0.000;-4.30712;-0.37561
1043.95;  240.721;  241.175;    0.000;-3.47264;-0.30299
1044.49;  206.369;  207.021;    0.000;-5.09726;-0.44498
1045.04;  240.088;  240.574;    0.000;-3.84119;-0.33550
1045.58;  232.345;  232.682;    0.000;-2.69997;-0.23594
1046.12;  257.597;  258.113;    0.000;-4.16499;-0.36416
1046.66;  241.441;  241.863;    0.000;-3.48025;-0.30445
1047.20;  222.333;  222.781;    0.000;-3.73754;-0.32712
1047.74;  257.075;  257.426;    0.000;-2.96581;-0.25971
1048.28;  237.738;  238.184;    0.000;-3.79808;-0.33276
1048.82;  252.802;  253.439;    0.000;-5.58381;-0.48947
1049.36;  255.892;  256.342;    0.000;-3.98299;-0.34932
1049.91;  243.946;  244.476;    0.000;-4.75094;-0.41689
1050.45;  236.649;  237.102;    0.000;-4.14721;-0.36410
1050.99;  258.465;  259.133;    0.000;-6.21805;-0.54619
1051.53;  263.549;  264.123;    0.000;-5.42226;-0.47654
1052.07;  236.310;  236.742;    0.000;-4.12331;-0.36256
1052.61;  236.637;  237.195;    0.000;-5.42117;-0.47693
1053.15;  246.417;  246.809;    0.000;-3.84740;-0.33865
1053.69;  241.905;  242.521;    0.000;-6.11112;-0.53818
1054.23;  246.026;  246.306;    0.000;-2.86398;-0.25235
1054.77;  260.277;  260.820;    0.000;-5.62571;-0.49594
1055.31;  246.778;  247.420;    0.000;-6.75764;-0.59603
1055.85;  236.795;  237.411;    0.000;-6.51925;-0.57530
1056.39;  238.255;  238.742;    0.000;-5.24203;-0.46283
1056.93;  243.786;  244.237;    0.000;-4.96830;-0.43888
1057.47;  254.958;  255.486;    0.000;-5.81368;-0.51382
1058.01;  250.753;  251.330;    0.000;-6.52792;-0.57725
1058.55;  245.699;  246.327;    0.000;-7.30852;-0.64660
1059.09;  249.438;  249.911;    0.000;-5.58681;-0.49453
1059.63;  259.149;  260.150;    0.000;-12.04813;-1.06701
1060.17;  271.936;  272.195;    0.000;-3.13469;-0.27776
1060.71;  235.397;  235.951;    0.000;-6.76631;-0.59985
1061.25;  250.388;  250.815;    0.000;-5.29757;-0.46988
1061.79;  248.184;  248.704;    0.000;-6.64940;-0.59009
1062.33;  241.915;  242.316;    0.000;-5.20304;-0.46197
1062.87;  273.559;  274.059;    0.000;-6.56890;-0.58354
1063.41;  249.461;  249.955;    0.000;-6.71190;-0.59654
1063.95;  258.923;  259.520;    0.000;-8.10634;-0.72084
1064.49;  240.308;  240.397;    0.000;-1.21972;-0.10852
1065.03;  296.959;  297.398;    0.000;-6.12694;-0.54538
1065.57;  272.318;  272.900;    0.000;-8.43850;-0.75152
1066.11;  251.175;  251.756;    0.000;-8.59689;-0.76602
1066.65;  247.650;  248.196;    0.000;-8.02956;-0.71583
1067.19;  262.513;  263.038;    0.000;-7.84166;-0.69943
1067.73;  273.833;  274.394;    0.000;-8.52452;-0.76072
1068.27;  241.213;  241.876;    0.000;-10.16054;-0.90717
1068.81;  246.873;  247.346;    0.000;-7.42611;-0.66337
1069.35;  272.013;  272.431;    0.000;-6.51284;-0.58208
1069.89;  240.101;  240.530;    0.000;-6.74875;-0.60347
1070.43;  263.611;  264.145;    0.000;-8.73752;-0.78170
1070.96;  262.657;  263.129;    0.000;-7.70294;-0.68949
1071.50;  259.669;  260.330;    0.000;-10.93055;-0.97888
1072.04;  254.238;  254.800;    0.000;-9.23368;-0.82733
1072.58;  261.387;  261.956;    0.000;-9.58749;-0.85947
1073.12;  270.926;  271.560;    0.000;-11.01939;-0.98832
1073.66;  243.325;  243.755;    0.000;-7.49611;-0.67266
1074.20;  243.045;  243.611;    0.000;-9.88075;-0.88709
1074.74;  258.462;  258.954;    0.000;-8.78907;-0.78948
1075.27;  247.441;  247.841;    0.000;-7.10047;-0.63812
1075.81;  249.857;  250.347;    0.000;-8.92867;-0.80282
1076.35;  254.902;  255.429;    0.000;-9.80356;-0.88192
1076.89;  261.698;  262.007;    0.000;-5.90892;-0.53183
1077.43;  273.816;  274.395;    0.000;-11.14898;-1.00396
1077.97;  262.975;  263.488;    0.000;-10.06563;-0.90686
1078.50;  257.520;  257.934;    0.000;-7.84188;-0.70686
1079.04;  248.715;  249.384;    0.000;-13.23120;-1.19325
1079.58;  256.110;  256.712;    0.000;-12.27712;-1.10776
1080.12;  250.556;  251.226;    0.000;-13.82309;-1.24787
1080.66;  264.719;  265.136;    0.000;-8.81237;-0.79593
1081.20;  234.653;  235.302;    0.000;-13.65616;-1.23403
1081.73;  238.927;  239.493;    0.000;-11.89930;-1.07581
1082.27;  258.762;  259.314;    0.000;-11.68198;-1.05669
1082.81;  262.343;  262.319;    0.000; 0.50664; 0.04585
1083.35;  253.209;  253.654;    0.000;-9.98322;-0.90392
1083.88;  253.641;  254.146;    0.000;-11.38101;-1.03100
1084.42;  267.376;  267.920;    0.000;-12.21528;-1.10712
1084.96;  247.286;  247.874;    0.000;-13.23759;-1.20037
1085.50;  256.165;  256.720;    0.000;-12.94127;-1.17409
1086.04;  249.986;  250.605;    0.000;-14.55767;-1.32139
1086.57;  280.541;  280.958;    0.000;-9.83146;-0.89283
1087.11;  253.856;  254.575;    0.000;-17.16690;-1.55977
1087.65;  246.284;  246.885;    0.000;-14.62298;-1.32928
1088.19;  267.944;  268.619;    0.000;-16.68251;-1.51725
1088.72;  254.333;  254.787;    0.000;-11.59990;-1.05552
1089.26;  247.791;  248.229;    0.000;-11.30554;-1.02924
1089.80;  239.760;  240.327;    0.000;-14.81409;-1.34932
1090.33;  274.790;  275.371;    0.000;-14.79584;-1.34832
1090.87;  235.443;  235.803;    0.000;-9.47771;-0.86411
1091.41;  238.068;  238.567;    0.000;-13.81223;-1.25993
1091.95;  257.594;  258.060;    0.000;-12.47785;-1.13877
1092.48;  267.107;  267.493;    0.000;-10.57896;-0.96594
1093.02;  240.277;  240.813;    0.000;-14.97689;-1.36818
1093.56;  259.057;  259.610;    0.000;-15.59539;-1.42538
1094.09;  236.213;  236.727;    0.000;-14.67604;-1.34201
1094.63;  235.686;  236.119;    0.000;-12.35068;-1.12993
1095.17;  237.266;  237.911;    0.000;-19.22399;-1.75961
1095.70;  257.256;  257.903;    0.000;-19.40085;-1.77667
1096.24;  242.621;  243.193;    0.000;-17.36645;-1.59115
1096.78;  238.826;  239.317;    0.000;-15.09287;-1.38351
1097.31;  242.070;  242.743;    0.000;-21.37098;-1.95997
1097.85;  247.773;  248.296;    0.000;-16.29642;-1.49530
1098.39;  233.093;  233.722;    0.000;-20.26280;-1.86015
1098.92;  244.801;  245.302;    0.000;-16.29934;-1.49703
1099.46;  255.782;  256.478;    0.000;-23.07258;-2.12016
1099.99;  245.309;  245.746;    0.000;-14.23087;-1.30833

